$SPEC_ID:
152EU,1uC{13,7.49}
$MEAS_TIM:
3600.00 3600.00
$DATE_MEA:
3/9/2018 5:22:25 PM
$DATA:
0 1193
845.746
816.724
789.384
1152.071
1073.906
916.435
786.417
672.536
600.264
546.910
552.031
653.800
874.887
1051.497
1021.559
896.986
777.307
728.832
749.573
816.122
885.940
958.959
1024.781
1072.767
1125.372
1177.566
1223.416
1267.001
1313.572
1357.823
1399.530
1443.361
1476.576
1494.150
1516.295
1560.471
1653.854
1795.681
1959.996
2133.739
2252.228
2237.137
2053.173
1758.885
1444.516
1177.457
987.615
876.429
822.440
801.228
791.430
784.516
778.422
771.490
763.428
756.240
750.853
746.716
743.434
740.800
738.198
734.898
730.831
726.233
720.961
714.704
707.677
700.418
693.078
685.548
677.774
669.737
661.891
655.458
651.800
652.388
658.554
670.013
685.732
703.587
720.254
732.381
736.872
730.867
714.366
689.328
658.029
623.425
588.566
555.977
527.845
505.797
489.460
478.016
470.503
465.805
462.797
460.818
459.441
458.359
457.648
457.532
458.506
461.788
468.772
480.445
497.059
518.790
545.962
579.242
619.258
664.920
712.196
756.895
794.826
822.034
834.519
829.848
809.267
774.523
727.786
672.391
612.060
550.402
490.630
435.699
388.507
350.125
319.680
296.236
278.831
266.519
258.323
253.315
250.712
249.814
249.945
250.535
251.281
251.905
252.159
251.992
251.498
250.754
249.830
248.692
247.297
245.608
243.568
241.137
238.244
234.857
230.990
226.694
222.041
217.089
211.973
206.834
201.828
197.082
192.685
188.691
185.171
182.167
179.608
177.418
175.504
173.796
172.239
170.799
169.429
168.100
166.804
165.537
164.311
163.130
161.998
160.929
159.934
159.032
158.219
157.489
156.849
156.284
155.785
155.330
154.893
154.449
153.968
153.438
152.827
152.116
151.280
150.322
149.249
148.079
146.825
145.513
144.148
142.729
141.286
139.816
138.336
136.863
135.427
134.042
132.729
131.505
130.367
129.321
128.368
127.520
126.767
126.120
125.589
125.168
124.863
124.658
124.547
124.508
124.528
124.593
124.698
124.826
124.960
125.102
125.231
125.332
125.384
125.378
125.287
125.101
124.826
124.479
124.064
123.591
123.084
122.548
122.016
121.506
121.049
120.662
120.385
120.275
120.378
120.745
121.424
122.455
123.829
125.550
127.615
130.023
132.764
135.775
138.994
142.341
145.747
149.136
152.425
155.487
158.208
160.467
162.159
163.166
163.480
163.120
162.084
160.382
158.034
155.071
151.585
147.669
143.427
138.943
134.316
129.640
125.009
120.519
116.261
112.336
108.823
105.730
103.027
100.693
98.692
96.998
95.578
94.398
93.409
92.562
91.822
91.140
90.475
89.802
89.110
88.375
87.579
86.710
85.751
84.729
83.674
82.642
81.651
80.752
79.974
79.357
78.917
78.693
78.708
78.984
79.557
80.422
81.559
82.933
84.529
86.311
88.264
90.338
92.489
94.647
96.759
98.754
100.576
102.172
103.485
104.495
105.155
105.442
105.305
104.724
103.680
102.224
100.388
98.224
95.780
93.089
90.210
87.190
84.102
80.997
77.950
75.017
72.270
69.755
67.516
65.578
63.965
62.714
61.847
61.397
61.374
61.771
62.563
63.745
65.289
67.191
69.421
71.968
74.771
77.785
80.972
84.272
87.653
91.049
94.431
97.713
100.850
103.764
106.409
108.707
110.607
112.074
113.086
113.659
113.769
113.431
112.623
111.353
109.628
107.487
104.952
102.080
98.891
95.439
91.745
87.861
83.832
79.695
75.511
71.314
67.165
63.098
59.167
55.394
51.789
48.357
45.116
42.071
39.230
36.609
34.207
32.016
30.019
28.211
26.574
25.102
23.777
22.595
21.536
20.594
19.753
19.002
18.331
17.725
17.176
16.670
16.205
15.775
15.381
15.015
14.676
14.361
14.066
13.788
13.527
13.286
13.061
12.855
12.666
12.496
12.343
12.209
12.093
11.996
11.918
11.859
11.822
11.803
11.807
11.833
11.889
11.976
12.101
12.267
12.479
12.741
13.058
13.435
13.879
14.398
14.998
15.686
16.467
17.351
18.342
19.443
20.646
21.950
23.349
24.841
26.418
28.076
29.814
31.617
33.468
35.347
37.235
39.108
40.951
42.738
44.455
46.074
47.589
48.969
50.199
51.265
52.140
52.815
53.259
53.471
53.434
53.168
52.674
51.973
51.066
49.970
48.694
47.243
45.638
43.891
42.032
40.076
38.048
35.970
33.865
31.749
29.650
27.580
25.553
23.575
21.659
19.816
18.052
16.382
14.812
13.355
12.007
10.767
9.629
8.589
7.642
6.784
6.010
5.316
4.696
4.147
3.661
3.234
2.861
2.535
2.252
2.005
1.789
1.600
1.434
1.289
1.164
1.054
0.960
0.877
0.805
0.740
0.681
0.627
0.577
0.532
0.491
0.453
0.419
0.387
0.357
0.330
0.304
0.280
0.258
0.237
0.218
0.201
0.185
0.170
0.157
0.145
0.134
0.124
0.115
0.107
0.100
0.093
0.087
0.082
0.078
0.074
0.070
0.067
0.064
0.061
0.059
0.057
0.055
0.053
0.051
0.050
0.048
0.047
0.046
0.045
0.044
0.043
0.042
0.041
0.040
0.039
0.038
0.037
0.036
0.035
0.035
0.034
0.033
0.032
0.032
0.031
0.030
0.030
0.029
0.028
0.028
0.027
0.027
0.026
0.025
0.025
0.024
0.023
0.023
0.022
0.021
0.021
0.020
0.019
0.018
0.018
0.017
0.016
0.015
0.015
0.014
0.013
0.012
0.012
0.011
0.010
0.010
0.009
0.008
0.008
0.007
0.007
0.006
0.006
0.005
0.005
0.004
0.004
0.003
0.003
0.003
0.002
0.002
0.002
0.002
0.001
0.001
0.001
0.001
0.001
0.001
0.001
0.001
0.000
0.000
0.000
0.000
0.000
0.000
0.000
0.000
0.000
0.000
0.000
0.000
0.000
0.000
0.000
0.000
0.000
0.000
0.000
0.000
0.000
0.000
0.000
0.000
0.000
0.000
0.000
0.000
0.000
0.000
0.000
0.000
-0.000
-0.000
-0.000
-0.000
-0.000
-0.000
-0.000
-0.000
-0.000
-0.000
-0.000
0.000
0.000
0.000
0.000
0.000
0.000
0.000
0.000
0.000
0.000
0.000
-0.000
-0.000
-0.000
-0.000
-0.000
-0.000
-0.000
-0.000
-0.000
-0.000
-0.000
0.000
0.000
0.000
0.000
0.000
0.000
0
0
0
0
0
0
0
0
0
0
0
0
0
0
0
0
0
0
0
0
0
0
0
0
0
0
0
0
0
0
0
0
0
0
0
0
0
0
0
0
0
0
0
0
0
0
0
0
0
0
0
0
0
0
0
0
0
0
0
0
0
0
0
0
0
0
0
0
0
0
0
0
0
0
0
0
0
0
0
0
0
0
0
0
0
0
0
0
0
0
0
0
0
0
0
0
0
0
0
0
0
0
0
0
0
0
0
0
0
0
0
0
0
0
0
0
0
0
0
0
0
0
0
0
0
0
0
0
0
0
0
0
0
0
0
0
0
0
0
0
0
0
0
0
0
0
0
0
0
0
0
0
0
0
0
0
0
0
0
0
0
0
0
0
0
0
0
0
0
0
0
0
0
0
0
0
0
0
0
0
0
0
0
0
0
0
0
0
0
0
0
0
0
0
0
0
0
0
0
0
0
0
0
0
0
0
0
0
0
0
0
0
0
0
0
0
0
0
0
0
0
0
0
0
0
0
0
0
0
0
0
0
0
0
0
0
0
0
0
0
0
0
0
0
0
0
0
0
0
0
0
0
0
0
0
0
0
0
0
0
0
0
0
0
0
0
0
0
0
0
0
0
0
0
0
0
0
0
0
0
0
0
0
0
0
0
0
0
0
0
0
0
0
0
0
0
0
0
0
0
0
0
0
0
0
0
0
0
0
0
0
0
0
0
0
0
0
0
0
0
0
0
0
0
0
0
0
0
0
0
0
0
0
0
0
0
0
0
0
0
0
0
0
0
0
0
0
0
0
0
0
0
0
0
0
0
0
0
0
0
0
0
0
0
0
0
0
0
0
0
0
0
0
0
0
0
0
0
0
0
0
0
0
0
0
0
0
0
0
0
0
0
0
0
0
0
0
0
0
0
0
0
0
0
0
0
0
0
0
0
0
0
0
0
0
0
0
0
0
0
0
0
0
0
0
0
0
0
0
0
0
0
0
0
0
0
0
0
0
0
0
0
0
0
0
0
0
0
0
0
0
0
0
0
0
0
0
0
0
0
0
0
0
0
0
0
0
0
0
0
0
0
0
0
$MCA_CAL:
3
-1.4656616 2.9313233 0.00000000000000
$ENER_FIT:
-1.4656616 2.9313233 0.00000000000000
$MCA_CAL_DATA:
3
298 872
597 1749
896 2625
$CAMBIO:
Parent file specification: C:\GADRAS-DRF\Temp\152EU_150.0_50.0_alum_7.49_9.0.pcf
Successful read of spectrum: Yes
Error message: None
Warning: None
Information: None
Neutrons: 0
Number of spectral records in the parent file: 1
Record number of this spectrum in the parent file: 1
Date and time of acquisition read successfully from the original file: Yes
Live time read successfully from the original file: Yes
True time read successfully from the original file: Yes
GADRAS Tag character is:  
Version: 130122
Parent file type: Sandia GADRAS PCF
