$SPEC_ID:
152EU,1uC{26,11.02}
$MEAS_TIM:
3600.00 3600.00
$DATE_MEA:
3/9/2018 5:22:25 PM
$DATA:
0 1193
668.379
628.016
587.364
1021.839
857.804
748.132
654.345
575.451
513.549
459.519
428.013
401.013
377.358
359.959
347.981
339.967
334.207
332.959
337.509
346.059
361.393
379.367
393.590
400.632
406.518
413.973
425.518
438.814
450.875
469.636
493.909
519.640
542.619
555.511
569.179
587.180
614.835
654.108
702.031
755.088
797.721
809.983
781.582
729.363
671.608
623.023
594.083
583.649
584.229
588.679
593.293
596.845
597.436
594.541
590.122
586.038
583.632
582.732
582.789
583.620
584.921
586.198
586.913
586.531
584.981
582.532
579.555
576.467
573.116
569.065
564.204
558.619
552.584
546.523
541.564
539.408
540.998
546.151
554.335
564.363
574.688
582.474
584.717
579.995
567.904
549.168
526.144
501.286
476.988
455.531
437.947
424.171
414.019
407.075
402.856
400.636
399.446
398.502
397.604
396.741
395.945
395.351
395.177
396.240
399.738
406.642
417.142
431.243
449.256
472.226
501.194
535.447
571.908
607.406
638.205
660.165
669.276
664.434
646.702
617.225
578.260
532.728
483.632
434.070
387.292
346.440
312.814
285.838
264.830
249.081
237.791
230.180
225.465
222.975
222.035
222.009
222.514
223.241
223.895
224.306
224.423
224.182
223.581
222.705
221.667
220.556
219.349
217.972
216.334
214.377
212.035
209.274
206.052
202.404
198.426
194.198
189.829
185.451
181.217
177.264
173.691
170.505
167.729
165.375
163.393
161.711
160.244
158.922
157.695
156.531
155.388
154.246
153.104
151.971
150.866
149.798
148.770
147.791
146.864
146.004
145.215
144.510
143.912
143.413
142.986
142.592
142.192
141.753
141.258
140.711
140.096
139.412
138.649
137.807
136.872
135.840
134.712
133.516
132.262
130.961
129.647
128.322
127.003
125.702
124.440
123.220
122.054
120.959
119.939
119.003
118.151
117.394
116.719
116.134
115.643
115.235
114.910
114.662
114.494
114.390
114.344
114.346
114.393
114.467
114.547
114.629
114.688
114.712
114.686
114.610
114.467
114.252
113.955
113.586
113.143
112.632
112.067
111.444
110.799
110.153
109.543
108.989
108.524
108.195
108.038
108.097
108.414
109.030
109.952
111.192
112.760
114.667
116.909
119.436
122.197
125.125
128.164
131.245
134.268
137.102
139.625
141.709
143.248
144.166
144.457
144.114
143.115
141.447
139.142
136.275
132.936
129.211
125.197
120.977
116.654
112.337
108.130
104.142
100.473
97.182
94.256
91.691
89.475
87.606
86.067
84.823
83.831
83.056
82.452
81.973
81.585
81.235
80.877
80.462
79.948
79.286
78.477
77.554
76.542
75.475
74.375
73.288
72.232
71.255
70.383
69.660
69.110
68.776
68.669
68.798
69.184
69.832
70.763
71.967
73.422
75.081
76.912
78.865
80.913
83.002
85.076
87.060
88.891
90.510
91.837
92.828
93.451
93.704
93.558
93.013
92.045
90.658
88.877
86.762
84.371
81.745
78.948
76.026
73.044
70.052
67.120
64.303
61.667
59.263
57.145
55.329
53.828
52.666
51.857
51.420
51.366
51.693
52.383
53.430
54.814
56.532
58.560
60.888
63.460
66.239
69.188
72.257
75.415
78.602
81.785
84.879
87.841
90.596
93.098
95.270
97.077
98.499
99.507
100.101
100.247
99.945
99.164
97.925
96.260
94.208
91.794
89.069
86.056
82.804
79.342
75.724
71.995
68.188
64.361
60.547
56.800
53.139
49.597
46.197
42.965
39.922
37.098
34.510
32.156
30.023
28.095
26.359
24.796
23.396
22.141
21.021
20.020
19.134
18.343
17.641
17.013
16.449
15.941
15.479
15.063
14.681
14.330
14.002
13.692
13.395
13.112
12.842
12.587
12.346
12.118
11.907
11.709
11.526
11.359
11.207
11.069
10.948
10.840
10.749
10.672
10.611
10.566
10.534
10.519
10.517
10.531
10.561
10.611
10.689
10.801
10.950
11.145
11.390
11.691
12.056
12.491
13.004
13.600
14.289
15.076
15.969
16.973
18.088
19.307
20.627
22.039
23.537
25.121
26.779
28.506
30.282
32.087
33.893
35.684
37.433
39.122
40.721
42.222
43.593
44.818
45.883
46.762
47.443
47.898
48.122
48.089
47.820
47.319
46.606
45.688
44.583
43.303
41.856
40.263
38.541
36.718
34.810
32.845
30.845
28.833
26.828
24.856
22.926
21.051
19.237
17.498
15.842
14.277
12.817
11.468
10.232
9.102
8.074
7.143
6.305
5.552
4.881
4.286
3.761
3.302
2.902
2.556
2.256
1.999
1.777
1.585
1.417
1.272
1.145
1.036
0.942
0.861
0.791
0.728
0.672
0.621
0.574
0.532
0.492
0.456
0.423
0.392
0.363
0.336
0.310
0.286
0.263
0.242
0.222
0.203
0.186
0.171
0.156
0.144
0.132
0.121
0.112
0.103
0.096
0.089
0.083
0.078
0.073
0.069
0.065
0.062
0.059
0.056
0.054
0.052
0.050
0.048
0.047
0.046
0.044
0.043
0.042
0.041
0.040
0.039
0.038
0.037
0.036
0.036
0.035
0.034
0.033
0.032
0.032
0.031
0.030
0.030
0.029
0.028
0.028
0.027
0.027
0.026
0.026
0.025
0.025
0.024
0.024
0.023
0.022
0.022
0.021
0.021
0.020
0.020
0.019
0.019
0.018
0.017
0.017
0.016
0.015
0.015
0.014
0.013
0.013
0.012
0.011
0.011
0.010
0.009
0.009
0.008
0.007
0.007
0.006
0.006
0.005
0.005
0.004
0.004
0.004
0.003
0.003
0.003
0.002
0.002
0.002
0.002
0.001
0.001
0.001
0.001
0.001
0.001
0.001
0.000
0.000
0.000
0.000
0.000
0.000
0.000
0.000
0.000
0.000
0.000
0.000
0.000
0.000
0.000
0.000
0.000
0.000
0.000
0.000
0.000
0.000
0.000
0.000
0.000
0.000
0.000
0.000
0.000
0.000
0.000
0.000
0.000
-0.000
-0.000
-0.000
-0.000
-0.000
-0.000
-0.000
-0.000
-0.000
-0.000
0.000
0.000
0.000
0.000
0.000
0.000
0.000
0.000
0.000
0.000
0.000
-0.000
-0.000
-0.000
-0.000
-0.000
-0.000
-0.000
-0.000
-0.000
-0.000
0.000
0.000
0.000
0.000
0.000
0.000
0
0
0
0
0
0
0
0
0
0
0
0
0
0
0
0
0
0
0
0
0
0
0
0
0
0
0
0
0
0
0
0
0
0
0
0
0
0
0
0
0
0
0
0
0
0
0
0
0
0
0
0
0
0
0
0
0
0
0
0
0
0
0
0
0
0
0
0
0
0
0
0
0
0
0
0
0
0
0
0
0
0
0
0
0
0
0
0
0
0
0
0
0
0
0
0
0
0
0
0
0
0
0
0
0
0
0
0
0
0
0
0
0
0
0
0
0
0
0
0
0
0
0
0
0
0
0
0
0
0
0
0
0
0
0
0
0
0
0
0
0
0
0
0
0
0
0
0
0
0
0
0
0
0
0
0
0
0
0
0
0
0
0
0
0
0
0
0
0
0
0
0
0
0
0
0
0
0
0
0
0
0
0
0
0
0
0
0
0
0
0
0
0
0
0
0
0
0
0
0
0
0
0
0
0
0
0
0
0
0
0
0
0
0
0
0
0
0
0
0
0
0
0
0
0
0
0
0
0
0
0
0
0
0
0
0
0
0
0
0
0
0
0
0
0
0
0
0
0
0
0
0
0
0
0
0
0
0
0
0
0
0
0
0
0
0
0
0
0
0
0
0
0
0
0
0
0
0
0
0
0
0
0
0
0
0
0
0
0
0
0
0
0
0
0
0
0
0
0
0
0
0
0
0
0
0
0
0
0
0
0
0
0
0
0
0
0
0
0
0
0
0
0
0
0
0
0
0
0
0
0
0
0
0
0
0
0
0
0
0
0
0
0
0
0
0
0
0
0
0
0
0
0
0
0
0
0
0
0
0
0
0
0
0
0
0
0
0
0
0
0
0
0
0
0
0
0
0
0
0
0
0
0
0
0
0
0
0
0
0
0
0
0
0
0
0
0
0
0
0
0
0
0
0
0
0
0
0
0
0
0
0
0
0
0
0
0
0
0
0
0
0
0
0
0
0
0
0
0
0
0
0
0
0
0
0
0
0
0
0
0
0
0
0
0
0
0
0
0
0
0
0
0
0
0
0
0
0
0
0
0
0
0
0
0
0
0
0
0
0
0
0
0
0
0
0
0
0
$MCA_CAL:
3
-1.4656616 2.9313233 0.00000000000000
$ENER_FIT:
-1.4656616 2.9313233 0.00000000000000
$MCA_CAL_DATA:
3
298 872
597 1749
896 2625
$CAMBIO:
Parent file specification: C:\GADRAS-DRF\Temp\152EU_100.0_50.0_iron_11.02_8.5.pcf
Successful read of spectrum: Yes
Error message: None
Warning: None
Information: None
Neutrons: 0
Number of spectral records in the parent file: 1
Record number of this spectrum in the parent file: 1
Date and time of acquisition read successfully from the original file: Yes
Live time read successfully from the original file: Yes
True time read successfully from the original file: Yes
GADRAS Tag character is:  
Version: 130122
Parent file type: Sandia GADRAS PCF
