$SPEC_ID:
152EU,1uC{26,3.50}
$MEAS_TIM:
3600.00 3600.00
$DATE_MEA:
3/9/2018 5:22:25 PM
$DATA:
0 1193
1605.989
1588.468
1484.672
1765.327
1496.747
1292.339
1118.896
979.419
871.888
779.371
727.459
683.214
642.690
616.089
601.796
594.448
592.226
598.745
618.583
647.378
690.885
742.292
783.760
813.097
846.650
892.790
942.595
977.107
988.642
1003.656
1038.365
1085.132
1131.698
1162.115
1196.901
1251.200
1352.842
1538.073
1833.729
2212.484
2544.576
2631.029
2385.962
1921.247
1437.875
1089.126
901.950
834.371
831.408
851.796
874.740
891.629
898.136
889.715
871.613
851.612
833.782
819.790
809.945
803.840
799.585
794.793
789.059
782.489
775.224
767.927
761.516
756.409
752.429
748.450
743.753
738.362
732.553
726.858
723.004
723.578
732.718
754.388
788.069
830.892
876.196
915.601
938.357
934.643
903.965
849.778
780.908
708.131
640.051
583.731
541.468
511.697
492.262
480.409
473.639
470.168
468.414
467.513
466.776
465.710
463.897
461.376
458.918
457.472
458.698
464.485
477.881
503.024
543.473
600.961
676.600
768.334
871.396
979.229
1078.783
1155.870
1200.367
1206.717
1171.064
1098.827
999.198
882.044
759.165
642.362
539.128
452.424
384.632
334.565
299.152
275.415
260.725
252.590
248.859
248.463
250.491
254.082
258.495
262.981
266.948
270.014
271.839
272.361
271.981
271.108
270.100
269.181
268.573
268.268
267.828
266.794
264.749
261.485
256.800
250.592
243.173
234.924
226.254
217.608
209.473
202.298
196.284
191.389
187.583
184.763
182.686
181.117
179.822
178.674
177.560
176.385
175.102
173.736
172.303
170.821
169.348
167.934
166.623
165.445
164.408
163.530
162.814
162.274
161.935
161.799
161.839
161.976
162.127
162.218
162.219
162.129
161.929
161.604
161.100
160.377
159.373
158.083
156.557
154.857
153.033
151.114
149.151
147.161
145.178
143.229
141.355
139.576
137.921
136.413
135.050
133.842
132.793
131.913
131.183
130.606
130.187
129.913
129.785
129.796
129.952
130.236
130.643
131.160
131.785
132.492
133.244
134.031
134.811
135.551
136.202
136.723
137.061
137.191
137.117
136.862
136.429
135.830
135.077
134.154
133.072
131.830
130.504
129.198
128.025
127.106
126.532
126.370
126.678
127.526
128.968
131.069
133.895
137.511
141.982
147.306
153.374
160.048
167.198
174.681
182.257
189.596
196.384
202.298
207.074
210.520
212.505
212.896
211.542
208.451
203.844
197.929
190.932
183.073
174.622
165.849
157.043
148.484
140.438
133.046
126.402
120.609
115.754
111.901
108.968
106.845
105.408
104.545
104.138
104.093
104.304
104.664
105.084
105.457
105.694
105.702
105.397
104.681
103.500
101.921
100.022
97.889
95.598
93.250
90.905
88.660
86.586
84.773
83.287
82.209
81.595
81.504
82.008
83.159
84.967
87.382
90.375
93.897
97.918
102.350
107.080
111.969
116.897
121.720
126.311
130.530
134.207
137.210
139.372
140.563
140.723
139.913
138.160
135.519
132.017
127.730
122.803
117.367
111.588
105.602
99.569
93.597
87.811
82.309
77.210
72.609
68.610
65.235
62.494
60.408
58.985
58.242
58.177
58.788
60.053
61.973
64.526
67.710
71.477
75.803
80.625
85.898
91.586
97.622
103.919
110.340
116.798
123.145
129.287
135.089
140.464
145.281
149.451
152.867
155.402
157.005
157.649
157.375
156.169
154.064
151.068
147.223
142.610
137.357
131.550
125.316
118.741
111.943
105.015
98.034
91.109
84.314
77.757
71.503
65.599
60.067
54.937
50.228
45.975
42.193
38.857
35.934
33.381
31.161
29.230
27.555
26.101
24.846
23.762
22.830
22.020
21.310
20.679
20.112
19.598
19.120
18.669
18.228
17.789
17.348
16.911
16.480
16.058
15.649
15.256
14.882
14.529
14.203
13.905
13.640
13.412
13.222
13.067
12.945
12.849
12.776
12.722
12.682
12.655
12.634
12.620
12.608
12.597
12.582
12.563
12.547
12.544
12.565
12.624
12.730
12.894
13.131
13.460
13.903
14.479
15.212
16.121
17.229
18.551
20.093
21.860
23.856
26.084
28.548
31.255
34.188
37.314
40.593
43.989
47.458
50.971
54.479
57.944
61.295
64.487
67.447
70.115
72.441
74.354
75.828
76.842
77.411
77.506
77.136
76.284
74.954
73.153
70.938
68.363
65.469
62.321
58.960
55.449
51.827
48.146
44.448
40.779
37.178
33.696
30.372
27.246
24.323
21.606
19.096
16.790
14.693
12.802
11.119
9.633
8.329
7.193
6.209
5.362
4.637
4.020
3.495
3.055
2.688
2.385
2.135
1.928
1.754
1.605
1.475
1.362
1.264
1.179
1.102
1.033
0.968
0.907
0.848
0.791
0.737
0.686
0.636
0.589
0.544
0.501
0.460
0.421
0.384
0.349
0.317
0.288
0.261
0.237
0.214
0.195
0.177
0.161
0.147
0.134
0.124
0.114
0.106
0.100
0.094
0.089
0.085
0.081
0.078
0.075
0.073
0.071
0.069
0.067
0.066
0.064
0.063
0.061
0.060
0.059
0.058
0.056
0.055
0.054
0.053
0.051
0.050
0.049
0.048
0.046
0.045
0.044
0.043
0.042
0.041
0.040
0.039
0.038
0.038
0.037
0.036
0.036
0.035
0.034
0.034
0.033
0.033
0.032
0.032
0.031
0.031
0.030
0.029
0.029
0.028
0.027
0.026
0.025
0.024
0.023
0.022
0.021
0.020
0.019
0.018
0.017
0.016
0.014
0.013
0.012
0.011
0.010
0.009
0.008
0.008
0.007
0.006
0.005
0.005
0.004
0.004
0.003
0.003
0.002
0.002
0.002
0.001
0.001
0.001
0.001
0.001
0.001
0.000
0.000
0.000
0.000
0.000
0.000
0.000
0.000
0.000
0.000
0.000
0.000
0.000
0.000
0.000
0.000
0.000
0.000
0.000
0.000
0.000
0.000
0.000
0.000
-0.000
-0.000
-0.000
-0.000
-0.000
-0.000
-0.000
-0.000
-0.000
0.000
0.000
0.000
0.000
0.000
0.000
0.000
0.000
0.000
0.000
0.000
0.000
0.000
0.000
0
0
0
0
0
0
0
0
0
0
0
0
0
0
0
0
0
0
0
0
0
0
0
0
0
0
0
0
0
0
0
0
0
0
0
0
0
0
0
0
0
0
0
0
0
0
0
0
0
0
0
0
0
0
0
0
0
0
0
0
0
0
0
0
0
0
0
0
0
0
0
0
0
0
0
0
0
0
0
0
0
0
0
0
0
0
0
0
0
0
0
0
0
0
0
0
0
0
0
0
0
0
0
0
0
0
0
0
0
0
0
0
0
0
0
0
0
0
0
0
0
0
0
0
0
0
0
0
0
0
0
0
0
0
0
0
0
0
0
0
0
0
0
0
0
0
0
0
0
0
0
0
0
0
0
0
0
0
0
0
0
0
0
0
0
0
0
0
0
0
0
0
0
0
0
0
0
0
0
0
0
0
0
0
0
0
0
0
0
0
0
0
0
0
0
0
0
0
0
0
0
0
0
0
0
0
0
0
0
0
0
0
0
0
0
0
0
0
0
0
0
0
0
0
0
0
0
0
0
0
0
0
0
0
0
0
0
0
0
0
0
0
0
0
0
0
0
0
0
0
0
0
0
0
0
0
0
0
0
0
0
0
0
0
0
0
0
0
0
0
0
0
0
0
0
0
0
0
0
0
0
0
0
0
0
0
0
0
0
0
0
0
0
0
0
0
0
0
0
0
0
0
0
0
0
0
0
0
0
0
0
0
0
0
0
0
0
0
0
0
0
0
0
0
0
0
0
0
0
0
0
0
0
0
0
0
0
0
0
0
0
0
0
0
0
0
0
0
0
0
0
0
0
0
0
0
0
0
0
0
0
0
0
0
0
0
0
0
0
0
0
0
0
0
0
0
0
0
0
0
0
0
0
0
0
0
0
0
0
0
0
0
0
0
0
0
0
0
0
0
0
0
0
0
0
0
0
0
0
0
0
0
0
0
0
0
0
0
0
0
0
0
0
0
0
0
0
0
0
0
0
0
0
0
0
0
0
0
0
0
0
0
0
0
0
0
0
0
0
0
0
0
0
0
0
0
0
0
0
0
0
0
0
0
0
0
0
0
0
0
0
0
0
0
0
0
0
0
0
0
0
0
0
0
0
0
0
0
0
0
0
0
0
0
0
0
0
0
0
0
0
0
0
0
$MCA_CAL:
3
-1.4656616 2.9313233 0.00000000000000
$ENER_FIT:
-1.4656616 2.9313233 0.00000000000000
$MCA_CAL_DATA:
3
298 872
597 1749
896 2625
$CAMBIO:
Parent file specification: C:\GADRAS-DRF\Temp\152EU_50.0_50.0_iron_3.50_7.5.pcf
Successful read of spectrum: Yes
Error message: None
Warning: None
Information: None
Neutrons: 0
Number of spectral records in the parent file: 1
Record number of this spectrum in the parent file: 1
Date and time of acquisition read successfully from the original file: Yes
Live time read successfully from the original file: Yes
True time read successfully from the original file: Yes
GADRAS Tag character is:  
Version: 130122
Parent file type: Sandia GADRAS PCF
