$SPEC_ID:
152EU,1uC{82,0.51}
$MEAS_TIM:
3600.00 3600.00
$DATE_MEA:
3/9/2018 5:22:25 PM
$DATA:
0 1193
1376.306
1287.918
1177.358
1080.241
951.318
841.354
740.584
655.391
586.805
526.082
492.187
467.190
454.536
453.780
448.754
433.774
402.121
375.425
367.664
370.056
377.029
387.464
392.518
391.688
387.200
386.947
389.785
393.942
398.669
410.605
428.996
448.214
463.193
472.920
482.220
499.610
539.067
620.459
759.094
939.588
1099.502
1153.905
1065.746
878.795
677.667
531.625
455.839
430.901
431.693
439.976
444.414
443.045
438.220
431.559
426.217
424.613
426.560
431.254
437.875
445.965
454.131
460.589
464.871
466.887
466.639
464.515
461.204
457.633
454.259
450.258
445.286
439.920
434.848
430.948
430.776
437.880
455.995
488.401
535.531
595.456
659.463
716.565
755.232
765.299
745.159
697.222
631.431
560.479
493.992
439.563
399.941
373.953
359.362
352.725
350.988
352.200
354.695
357.616
360.324
362.363
363.365
363.409
363.296
364.132
368.326
378.683
398.898
433.500
486.558
560.687
657.878
775.519
907.122
1044.262
1171.618
1272.648
1335.053
1351.304
1315.973
1235.371
1120.558
983.497
838.652
700.521
578.317
475.717
395.684
336.791
295.295
267.589
250.626
241.549
237.874
238.275
241.602
246.786
252.944
259.196
264.841
269.432
272.565
274.161
274.667
274.544
274.203
273.923
273.978
274.371
274.587
274.089
272.376
269.160
264.157
257.219
248.739
239.207
229.141
219.088
209.635
201.330
194.414
188.842
184.578
181.498
179.317
177.750
176.519
175.466
174.453
173.359
172.129
170.793
169.371
167.891
166.421
165.018
163.741
162.622
161.673
160.914
160.350
159.999
159.890
160.031
160.386
160.858
161.347
161.763
162.069
162.269
162.343
162.271
161.986
161.427
160.514
159.239
157.661
155.857
153.886
151.791
149.631
147.432
145.237
143.082
141.013
139.061
137.261
135.638
134.191
132.933
131.867
131.003
130.318
129.815
129.495
129.347
129.373
129.569
129.941
130.473
131.154
131.970
132.917
133.964
135.071
136.221
137.371
138.477
139.475
140.313
140.921
141.266
141.358
141.222
140.867
140.307
139.558
138.603
137.455
136.113
134.667
133.243
131.979
131.018
130.470
130.424
130.958
132.159
134.100
136.858
140.505
145.115
150.759
157.431
164.999
173.296
182.167
191.439
200.824
209.932
218.391
225.815
231.887
236.368
239.090
239.882
238.550
235.101
229.799
222.900
214.678
205.401
195.395
184.990
174.534
164.369
154.815
146.044
138.168
131.310
125.576
121.042
117.610
115.148
113.510
112.558
112.157
112.189
112.529
113.050
113.645
114.187
114.568
114.677
114.413
113.660
112.354
110.570
108.402
105.951
103.304
100.581
97.857
95.246
92.836
90.736
89.027
87.804
87.135
87.089
87.750
89.180
91.392
94.330
97.963
102.237
107.118
112.501
118.250
124.192
130.182
136.045
141.625
146.759
151.246
154.932
157.623
159.166
159.490
158.661
156.708
153.693
149.641
144.642
138.869
132.483
125.684
118.637
111.533
104.504
97.692
91.215
85.208
79.786
75.068
71.082
67.845
65.384
63.711
62.850
62.800
63.555
65.092
67.407
70.474
74.290
78.798
83.967
89.724
96.017
102.804
110.003
117.515
125.176
132.884
140.466
147.811
154.759
161.206
166.997
172.023
176.157
179.249
181.235
182.088
181.856
180.526
178.138
174.703
170.272
164.938
158.850
152.103
144.848
137.180
129.238
121.132
112.958
104.843
96.880
89.197
81.873
74.961
68.488
62.486
56.977
52.002
47.575
43.671
40.247
37.259
34.660
32.402
30.447
28.752
27.294
26.036
24.959
24.023
23.207
22.481
21.830
21.241
20.694
20.179
19.675
19.172
18.668
18.168
17.675
17.192
16.725
16.276
15.849
15.447
15.076
14.738
14.438
14.181
13.968
13.795
13.660
13.555
13.478
13.423
13.385
13.361
13.346
13.338
13.333
13.328
13.320
13.306
13.295
13.300
13.332
13.407
13.537
13.734
14.014
14.401
14.920
15.593
16.448
17.507
18.798
20.336
22.131
24.188
26.513
29.110
31.983
35.142
38.567
42.218
46.049
50.017
54.070
58.173
62.270
66.316
70.228
73.956
77.415
80.537
83.264
85.513
87.256
88.467
89.163
89.309
88.918
87.965
86.458
84.402
81.866
78.910
75.585
71.963
68.093
64.048
59.874
55.630
51.366
47.134
42.978
38.958
35.117
31.505
28.125
24.982
22.076
19.407
16.979
14.790
12.843
11.123
9.616
8.303
7.167
6.188
5.351
4.638
4.032
3.523
3.098
2.747
2.457
2.218
2.017
1.844
1.694
1.564
1.452
1.353
1.266
1.186
1.112
1.041
0.974
0.909
0.847
0.787
0.731
0.676
0.624
0.574
0.527
0.482
0.440
0.401
0.364
0.330
0.299
0.271
0.246
0.223
0.202
0.184
0.168
0.153
0.141
0.130
0.121
0.114
0.107
0.101
0.097
0.092
0.089
0.086
0.083
0.080
0.078
0.076
0.075
0.073
0.071
0.070
0.068
0.067
0.065
0.064
0.063
0.061
0.060
0.058
0.057
0.056
0.054
0.053
0.052
0.050
0.049
0.048
0.047
0.046
0.045
0.044
0.043
0.042
0.041
0.041
0.040
0.039
0.039
0.038
0.037
0.037
0.036
0.035
0.035
0.034
0.033
0.032
0.032
0.031
0.030
0.029
0.028
0.026
0.025
0.024
0.023
0.021
0.020
0.019
0.018
0.016
0.015
0.014
0.013
0.012
0.011
0.010
0.009
0.008
0.007
0.006
0.005
0.005
0.004
0.004
0.003
0.003
0.002
0.002
0.002
0.001
0.001
0.001
0.001
0.001
0.001
0.000
0.000
0.000
0.000
0.000
0.000
0.000
0.000
0.000
0.000
0.000
0.000
0.000
0.000
0.000
0.000
0.000
0.000
0.000
0.000
0.000
0.000
0.000
-0.000
-0.000
-0.000
-0.000
-0.000
-0.000
-0.000
-0.000
-0.000
0.000
0.000
0.000
0.000
0.000
0.000
0.000
0.000
0.000
0.000
0.000
0.000
0.000
0.000
0
0
0
0
0
0
0
0
0
0
0
0
0
0
0
0
0
0
0
0
0
0
0
0
0
0
0
0
0
0
0
0
0
0
0
0
0
0
0
0
0
0
0
0
0
0
0
0
0
0
0
0
0
0
0
0
0
0
0
0
0
0
0
0
0
0
0
0
0
0
0
0
0
0
0
0
0
0
0
0
0
0
0
0
0
0
0
0
0
0
0
0
0
0
0
0
0
0
0
0
0
0
0
0
0
0
0
0
0
0
0
0
0
0
0
0
0
0
0
0
0
0
0
0
0
0
0
0
0
0
0
0
0
0
0
0
0
0
0
0
0
0
0
0
0
0
0
0
0
0
0
0
0
0
0
0
0
0
0
0
0
0
0
0
0
0
0
0
0
0
0
0
0
0
0
0
0
0
0
0
0
0
0
0
0
0
0
0
0
0
0
0
0
0
0
0
0
0
0
0
0
0
0
0
0
0
0
0
0
0
0
0
0
0
0
0
0
0
0
0
0
0
0
0
0
0
0
0
0
0
0
0
0
0
0
0
0
0
0
0
0
0
0
0
0
0
0
0
0
0
0
0
0
0
0
0
0
0
0
0
0
0
0
0
0
0
0
0
0
0
0
0
0
0
0
0
0
0
0
0
0
0
0
0
0
0
0
0
0
0
0
0
0
0
0
0
0
0
0
0
0
0
0
0
0
0
0
0
0
0
0
0
0
0
0
0
0
0
0
0
0
0
0
0
0
0
0
0
0
0
0
0
0
0
0
0
0
0
0
0
0
0
0
0
0
0
0
0
0
0
0
0
0
0
0
0
0
0
0
0
0
0
0
0
0
0
0
0
0
0
0
0
0
0
0
0
0
0
0
0
0
0
0
0
0
0
0
0
0
0
0
0
0
0
0
0
0
0
0
0
0
0
0
0
0
0
0
0
0
0
0
0
0
0
0
0
0
0
0
0
0
0
0
0
0
0
0
0
0
0
0
0
0
0
0
0
0
0
0
0
0
0
0
0
0
0
0
0
0
0
0
0
0
0
0
0
0
0
0
0
0
0
0
0
0
0
0
0
0
0
0
0
0
0
0
0
0
0
0
0
0
0
0
0
0
0
0
0
0
0
0
0
0
0
0
0
0
0
0
0
0
0
0
0
$MCA_CAL:
3
-1.4656616 2.9313233 0.00000000000000
$ENER_FIT:
-1.4656616 2.9313233 0.00000000000000
$MCA_CAL_DATA:
3
298 872
597 1749
896 2625
$CAMBIO:
Parent file specification: C:\GADRAS-DRF\Temp\152EU_150.0_50.0_lead_0.51_7.5.pcf
Successful read of spectrum: Yes
Error message: None
Warning: None
Information: None
Neutrons: 0
Number of spectral records in the parent file: 1
Record number of this spectrum in the parent file: 1
Date and time of acquisition read successfully from the original file: Yes
Live time read successfully from the original file: Yes
True time read successfully from the original file: Yes
GADRAS Tag character is:  
Version: 130122
Parent file type: Sandia GADRAS PCF
