$SPEC_ID:
152EU,1uC{82,0.92}
$MEAS_TIM:
3600.00 3600.00
$DATE_MEA:
3/9/2018 5:22:25 PM
$DATA:
0 1193
1344.329
1249.452
1139.868
1069.096
940.738
831.191
734.426
654.545
587.180
527.121
491.847
460.822
430.955
410.420
397.075
386.277
376.676
370.471
369.844
373.468
382.061
395.057
404.681
400.442
391.711
385.284
383.632
382.539
380.943
382.050
386.446
392.409
398.386
402.496
406.318
411.503
421.700
442.288
480.135
534.097
586.399
606.331
582.060
529.068
474.965
444.550
438.022
446.434
462.324
479.131
487.193
485.962
477.524
464.664
453.301
446.346
444.048
445.317
449.442
455.606
462.532
468.482
472.647
475.448
476.475
475.643
474.091
472.363
470.276
466.916
461.958
456.139
449.407
441.581
435.087
433.438
440.820
460.855
496.022
544.317
599.405
650.866
686.343
696.433
675.231
628.850
567.783
503.592
446.853
402.298
372.109
354.060
344.763
341.357
341.307
343.151
345.870
348.815
351.494
353.412
354.037
353.290
351.681
350.145
350.590
355.321
368.024
392.848
434.439
497.779
585.423
696.358
827.167
966.192
1099.349
1210.007
1279.443
1294.789
1257.101
1170.261
1046.913
904.450
758.864
622.728
507.526
416.630
348.362
300.354
268.377
247.944
235.761
229.818
228.250
230.012
234.359
240.488
247.480
254.382
260.410
264.978
267.577
268.342
267.881
266.787
265.679
265.155
265.634
266.761
267.966
268.667
268.129
265.637
260.736
253.640
244.680
234.324
223.416
212.823
203.257
195.017
188.367
183.410
179.908
177.561
176.058
175.109
174.409
173.701
172.873
171.883
170.679
169.299
167.806
166.264
164.742
163.296
161.979
160.833
159.869
159.108
158.551
158.224
158.164
158.385
158.834
159.391
159.935
160.380
160.729
161.008
161.217
161.287
161.096
160.540
159.548
158.183
156.514
154.624
152.563
150.374
148.127
145.857
143.607
141.410
139.314
137.345
135.537
133.935
132.557
131.393
130.409
129.583
128.880
128.325
127.948
127.766
127.787
127.992
128.366
128.880
129.529
130.312
131.240
132.309
133.481
134.722
135.974
137.188
138.301
139.257
139.983
140.423
140.566
140.436
140.040
139.393
138.514
137.390
136.038
134.463
132.760
131.051
129.466
128.140
127.172
126.654
126.671
127.319
128.694
130.921
134.123
138.420
143.882
150.471
158.152
166.869
176.523
186.786
197.289
207.639
217.457
226.312
233.777
239.375
242.678
243.472
241.845
237.931
231.876
223.843
214.224
203.469
192.042
180.378
168.862
157.797
147.488
138.237
130.289
123.667
118.319
114.206
111.279
109.442
108.513
108.315
108.668
109.404
110.382
111.470
112.559
113.516
114.226
114.584
114.498
113.858
112.571
110.650
108.211
105.383
102.284
99.060
95.806
92.653
89.704
87.083
84.887
83.222
82.169
81.810
82.242
83.524
85.661
88.621
92.398
96.962
102.276
108.191
114.575
121.270
128.142
135.001
141.616
147.745
153.116
157.501
160.681
162.603
163.200
162.449
160.290
156.739
151.941
146.110
139.454
132.154
124.433
116.473
108.484
100.646
93.170
86.235
79.944
74.328
69.442
65.322
62.007
59.522
57.853
56.994
56.931
57.661
59.167
61.450
64.496
68.307
72.863
78.173
84.167
90.778
97.949
105.595
113.662
122.014
130.513
138.948
147.169
154.978
162.229
168.755
174.444
179.165
182.762
185.135
186.193
185.990
184.529
181.865
178.021
173.049
167.049
160.206
152.650
144.564
136.081
127.364
118.539
109.714
101.027
92.585
84.524
76.911
69.799
63.225
57.232
51.854
47.132
43.033
39.494
36.455
33.853
31.623
29.705
28.066
26.671
25.494
24.500
23.666
22.954
22.346
21.813
21.330
20.875
20.420
19.952
19.465
18.967
18.456
17.940
17.420
16.901
16.390
15.896
15.426
14.987
14.590
14.239
13.936
13.681
13.476
13.318
13.211
13.150
13.130
13.138
13.165
13.202
13.235
13.259
13.265
13.257
13.230
13.185
13.121
13.037
12.943
12.860
12.806
12.800
12.865
13.019
13.287
13.697
14.283
15.075
16.106
17.406
19.005
20.914
23.142
25.694
28.576
31.799
35.364
39.250
43.403
47.770
52.288
56.911
61.574
66.226
70.770
75.134
79.213
82.918
86.171
88.868
90.970
92.441
93.294
93.486
93.022
91.872
90.047
87.585
84.573
81.086
77.192
72.979
68.511
63.874
59.124
54.337
49.580
44.920
40.422
36.158
32.159
28.438
24.994
21.834
18.962
16.381
14.096
12.093
10.350
8.843
7.551
6.451
5.521
4.736
4.082
3.542
3.101
2.744
2.454
2.218
2.020
1.855
1.716
1.599
1.501
1.415
1.338
1.265
1.194
1.127
1.062
0.998
0.936
0.876
0.816
0.757
0.700
0.644
0.590
0.539
0.490
0.445
0.402
0.362
0.326
0.292
0.262
0.235
0.211
0.190
0.172
0.156
0.143
0.131
0.122
0.113
0.106
0.101
0.096
0.092
0.088
0.085
0.083
0.081
0.079
0.077
0.075
0.074
0.072
0.071
0.070
0.068
0.067
0.066
0.064
0.063
0.062
0.060
0.059
0.057
0.056
0.054
0.053
0.052
0.050
0.049
0.047
0.046
0.045
0.044
0.043
0.042
0.041
0.040
0.040
0.039
0.039
0.038
0.038
0.037
0.037
0.036
0.036
0.035
0.035
0.034
0.034
0.033
0.032
0.031
0.030
0.029
0.028
0.027
0.025
0.024
0.023
0.021
0.020
0.018
0.017
0.016
0.014
0.013
0.012
0.011
0.010
0.009
0.008
0.007
0.006
0.005
0.004
0.004
0.003
0.003
0.002
0.002
0.002
0.001
0.001
0.001
0.001
0.001
0.001
0.000
0.000
0.000
0.000
0.000
0.000
0.000
0.000
0.000
0.000
0.000
0.000
0.000
0.000
0.000
0.000
0.000
0.000
0.000
-0.000
-0.000
-0.000
-0.000
-0.000
-0.000
-0.000
-0.000
0.000
0.000
0.000
0.000
0.000
0.000
0.000
0.000
-0.000
-0.000
-0.000
-0.000
-0.000
-0.000
-0.000
-0.000
-0.000
0.000
0.000
0.000
0.000
0.000
0
0
0
0
0
0
0
0
0
0
0
0
0
0
0
0
0
0
0
0
0
0
0
0
0
0
0
0
0
0
0
0
0
0
0
0
0
0
0
0
0
0
0
0
0
0
0
0
0
0
0
0
0
0
0
0
0
0
0
0
0
0
0
0
0
0
0
0
0
0
0
0
0
0
0
0
0
0
0
0
0
0
0
0
0
0
0
0
0
0
0
0
0
0
0
0
0
0
0
0
0
0
0
0
0
0
0
0
0
0
0
0
0
0
0
0
0
0
0
0
0
0
0
0
0
0
0
0
0
0
0
0
0
0
0
0
0
0
0
0
0
0
0
0
0
0
0
0
0
0
0
0
0
0
0
0
0
0
0
0
0
0
0
0
0
0
0
0
0
0
0
0
0
0
0
0
0
0
0
0
0
0
0
0
0
0
0
0
0
0
0
0
0
0
0
0
0
0
0
0
0
0
0
0
0
0
0
0
0
0
0
0
0
0
0
0
0
0
0
0
0
0
0
0
0
0
0
0
0
0
0
0
0
0
0
0
0
0
0
0
0
0
0
0
0
0
0
0
0
0
0
0
0
0
0
0
0
0
0
0
0
0
0
0
0
0
0
0
0
0
0
0
0
0
0
0
0
0
0
0
0
0
0
0
0
0
0
0
0
0
0
0
0
0
0
0
0
0
0
0
0
0
0
0
0
0
0
0
0
0
0
0
0
0
0
0
0
0
0
0
0
0
0
0
0
0
0
0
0
0
0
0
0
0
0
0
0
0
0
0
0
0
0
0
0
0
0
0
0
0
0
0
0
0
0
0
0
0
0
0
0
0
0
0
0
0
0
0
0
0
0
0
0
0
0
0
0
0
0
0
0
0
0
0
0
0
0
0
0
0
0
0
0
0
0
0
0
0
0
0
0
0
0
0
0
0
0
0
0
0
0
0
0
0
0
0
0
0
0
0
0
0
0
0
0
0
0
0
0
0
0
0
0
0
0
0
0
0
0
0
0
0
0
0
0
0
0
0
0
0
0
0
0
0
0
0
0
0
0
0
0
0
0
0
0
0
0
0
0
0
0
0
0
0
0
0
0
0
0
0
0
0
0
0
0
0
0
0
0
0
0
0
0
0
0
0
0
0
0
0
0
0
0
$MCA_CAL:
3
-1.4656616 2.9313233 0.00000000000000
$ENER_FIT:
-1.4656616 2.9313233 0.00000000000000
$MCA_CAL_DATA:
3
298 872
597 1749
896 2625
$CAMBIO:
Parent file specification: C:\GADRAS-DRF\Temp\152EU_100.0_50.0_lead_0.92_7.0.pcf
Successful read of spectrum: Yes
Error message: None
Warning: None
Information: None
Neutrons: 0
Number of spectral records in the parent file: 1
Record number of this spectrum in the parent file: 1
Date and time of acquisition read successfully from the original file: Yes
Live time read successfully from the original file: Yes
True time read successfully from the original file: Yes
GADRAS Tag character is:  
Version: 130122
Parent file type: Sandia GADRAS PCF
