$SPEC_ID:
152EU,1uC{82,0.51}
$MEAS_TIM:
3600.00 3600.00
$DATE_MEA:
3/9/2018 5:22:25 PM
$DATA:
0 1193
1412.668
1325.266
1212.710
1113.017
979.601
865.566
761.401
673.683
603.266
540.997
506.352
480.718
467.330
466.014
460.712
445.715
414.271
388.063
381.162
384.859
393.598
406.145
412.413
411.947
407.366
407.599
411.005
415.066
418.411
428.579
445.664
464.252
479.093
488.944
498.505
516.162
555.781
637.215
775.746
956.098
1116.005
1170.471
1082.610
896.103
695.568
550.472
476.002
452.666
455.306
465.487
471.107
469.746
463.699
454.851
447.074
443.412
443.795
447.363
453.205
460.840
468.784
475.144
479.499
481.784
481.917
480.219
477.324
474.088
470.890
466.852
461.613
455.776
450.026
445.207
443.930
449.835
466.711
497.872
543.813
602.668
665.733
722.013
759.967
769.421
748.759
700.382
634.249
563.066
496.416
441.826
402.027
375.876
361.141
354.364
352.485
353.567
355.961
358.805
361.448
363.430
364.382
364.380
364.225
365.024
369.182
379.504
399.683
434.249
487.269
561.359
658.509
776.107
907.672
1044.780
1172.102
1273.089
1335.440
1351.634
1316.248
1235.598
1120.742
983.645
838.771
700.616
578.393
475.779
395.734
336.832
295.329
267.619
250.652
241.573
237.897
238.297
241.624
246.807
252.964
259.216
264.860
269.451
272.583
274.180
274.686
274.563
274.221
273.940
273.995
274.388
274.605
274.107
272.394
269.179
264.176
257.238
248.759
239.227
229.160
219.108
209.655
201.350
194.434
188.862
184.598
181.518
179.337
177.769
176.537
175.484
174.470
173.375
172.144
170.807
169.384
167.904
166.433
165.029
163.751
162.632
161.682
160.922
160.358
160.006
159.896
160.037
160.391
160.863
161.352
161.768
162.074
162.273
162.346
162.274
161.989
161.430
160.517
159.242
157.663
155.859
153.888
151.793
149.633
147.434
145.238
143.083
141.014
139.062
137.262
135.638
134.192
132.934
131.868
131.003
130.318
129.816
129.495
129.347
129.373
129.569
129.941
130.473
131.154
131.971
132.917
133.965
135.071
136.221
137.371
138.477
139.475
140.313
140.921
141.266
141.358
141.222
140.867
140.307
139.558
138.604
137.455
136.113
134.667
133.244
131.979
131.018
130.470
130.424
130.958
132.159
134.100
136.858
140.505
145.115
150.759
157.431
164.999
173.296
182.167
191.439
200.824
209.932
218.391
225.815
231.887
236.368
239.090
239.882
238.550
235.101
229.799
222.900
214.678
205.401
195.395
184.990
174.534
164.369
154.815
146.044
138.168
131.310
125.576
121.042
117.610
115.148
113.510
112.558
112.157
112.189
112.529
113.050
113.645
114.187
114.568
114.677
114.413
113.660
112.354
110.570
108.402
105.951
103.304
100.581
97.857
95.246
92.836
90.736
89.027
87.804
87.135
87.089
87.750
89.180
91.392
94.330
97.963
102.237
107.118
112.501
118.250
124.192
130.182
136.045
141.625
146.759
151.246
154.932
157.623
159.166
159.490
158.661
156.708
153.693
149.641
144.642
138.869
132.483
125.684
118.637
111.533
104.504
97.692
91.215
85.208
79.786
75.068
71.082
67.845
65.384
63.711
62.850
62.800
63.555
65.092
67.407
70.474
74.290
78.798
83.967
89.724
96.017
102.804
110.003
117.515
125.176
132.884
140.466
147.811
154.759
161.206
166.997
172.023
176.157
179.249
181.235
182.088
181.856
180.526
178.138
174.703
170.272
164.938
158.850
152.103
144.848
137.180
129.238
121.132
112.958
104.843
96.880
89.197
81.873
74.961
68.488
62.486
56.977
52.002
47.575
43.671
40.247
37.259
34.660
32.402
30.447
28.752
27.294
26.036
24.959
24.023
23.207
22.481
21.830
21.241
20.694
20.179
19.675
19.172
18.668
18.168
17.675
17.192
16.725
16.276
15.849
15.447
15.076
14.738
14.438
14.181
13.968
13.795
13.660
13.555
13.478
13.423
13.385
13.361
13.346
13.338
13.333
13.328
13.320
13.306
13.295
13.300
13.332
13.407
13.537
13.734
14.014
14.401
14.920
15.593
16.448
17.507
18.798
20.336
22.131
24.188
26.513
29.110
31.983
35.142
38.567
42.218
46.049
50.017
54.070
58.173
62.270
66.316
70.228
73.956
77.415
80.537
83.264
85.513
87.256
88.467
89.163
89.309
88.918
87.965
86.458
84.402
81.866
78.910
75.585
71.963
68.093
64.048
59.874
55.630
51.366
47.134
42.978
38.958
35.117
31.505
28.125
24.982
22.076
19.407
16.979
14.790
12.843
11.123
9.616
8.303
7.167
6.188
5.351
4.638
4.032
3.523
3.098
2.747
2.457
2.218
2.017
1.844
1.694
1.564
1.452
1.353
1.266
1.186
1.112
1.041
0.974
0.909
0.847
0.787
0.731
0.676
0.624
0.574
0.527
0.482
0.440
0.401
0.364
0.330
0.299
0.271
0.246
0.223
0.202
0.184
0.168
0.153
0.141
0.130
0.121
0.114
0.107
0.101
0.097
0.092
0.089
0.086
0.083
0.080
0.078
0.076
0.075
0.073
0.071
0.070
0.068
0.067
0.065
0.064
0.063
0.061
0.060
0.058
0.057
0.056
0.054
0.053
0.052
0.050
0.049
0.048
0.047
0.046
0.045
0.044
0.043
0.042
0.041
0.041
0.040
0.039
0.039
0.038
0.037
0.037
0.036
0.035
0.035
0.034
0.033
0.032
0.032
0.031
0.030
0.029
0.028
0.026
0.025
0.024
0.023
0.021
0.020
0.019
0.018
0.016
0.015
0.014
0.013
0.012
0.011
0.010
0.009
0.008
0.007
0.006
0.005
0.005
0.004
0.004
0.003
0.003
0.002
0.002
0.002
0.001
0.001
0.001
0.001
0.001
0.001
0.000
0.000
0.000
0.000
0.000
0.000
0.000
0.000
0.000
0.000
0.000
0.000
0.000
0.000
0.000
0.000
0.000
0.000
0.000
0.000
0.000
0.000
0.000
-0.000
-0.000
-0.000
-0.000
-0.000
-0.000
-0.000
-0.000
-0.000
0.000
0.000
0.000
0.000
0.000
0.000
0.000
0.000
0.000
0.000
0.000
0.000
0.000
0.000
0
0
0
0
0
0
0
0
0
0
0
0
0
0
0
0
0
0
0
0
0
0
0
0
0
0
0
0
0
0
0
0
0
0
0
0
0
0
0
0
0
0
0
0
0
0
0
0
0
0
0
0
0
0
0
0
0
0
0
0
0
0
0
0
0
0
0
0
0
0
0
0
0
0
0
0
0
0
0
0
0
0
0
0
0
0
0
0
0
0
0
0
0
0
0
0
0
0
0
0
0
0
0
0
0
0
0
0
0
0
0
0
0
0
0
0
0
0
0
0
0
0
0
0
0
0
0
0
0
0
0
0
0
0
0
0
0
0
0
0
0
0
0
0
0
0
0
0
0
0
0
0
0
0
0
0
0
0
0
0
0
0
0
0
0
0
0
0
0
0
0
0
0
0
0
0
0
0
0
0
0
0
0
0
0
0
0
0
0
0
0
0
0
0
0
0
0
0
0
0
0
0
0
0
0
0
0
0
0
0
0
0
0
0
0
0
0
0
0
0
0
0
0
0
0
0
0
0
0
0
0
0
0
0
0
0
0
0
0
0
0
0
0
0
0
0
0
0
0
0
0
0
0
0
0
0
0
0
0
0
0
0
0
0
0
0
0
0
0
0
0
0
0
0
0
0
0
0
0
0
0
0
0
0
0
0
0
0
0
0
0
0
0
0
0
0
0
0
0
0
0
0
0
0
0
0
0
0
0
0
0
0
0
0
0
0
0
0
0
0
0
0
0
0
0
0
0
0
0
0
0
0
0
0
0
0
0
0
0
0
0
0
0
0
0
0
0
0
0
0
0
0
0
0
0
0
0
0
0
0
0
0
0
0
0
0
0
0
0
0
0
0
0
0
0
0
0
0
0
0
0
0
0
0
0
0
0
0
0
0
0
0
0
0
0
0
0
0
0
0
0
0
0
0
0
0
0
0
0
0
0
0
0
0
0
0
0
0
0
0
0
0
0
0
0
0
0
0
0
0
0
0
0
0
0
0
0
0
0
0
0
0
0
0
0
0
0
0
0
0
0
0
0
0
0
0
0
0
0
0
0
0
0
0
0
0
0
0
0
0
0
0
0
0
0
0
0
0
0
0
0
0
0
0
0
0
0
0
0
0
0
0
0
0
0
0
0
0
0
0
0
0
0
0
$MCA_CAL:
3
-1.4656616 2.9313233 0.00000000000000
$ENER_FIT:
-1.4656616 2.9313233 0.00000000000000
$MCA_CAL_DATA:
3
298 872
597 1749
896 2625
$CAMBIO:
Parent file specification: C:\GADRAS-DRF\Temp\152EU_125.0_50.0_lead_0.51_7.5.pcf
Successful read of spectrum: Yes
Error message: None
Warning: None
Information: None
Neutrons: 0
Number of spectral records in the parent file: 1
Record number of this spectrum in the parent file: 1
Date and time of acquisition read successfully from the original file: Yes
Live time read successfully from the original file: Yes
True time read successfully from the original file: Yes
GADRAS Tag character is:  
Version: 130122
Parent file type: Sandia GADRAS PCF
