$SPEC_ID:
152EU,1uC{82,0.92}
$MEAS_TIM:
3600.00 3600.00
$DATE_MEA:
3/9/2018 5:22:25 PM
$DATA:
0 1193
1285.169
1194.102
1093.159
1028.272
907.987
804.703
711.806
633.655
566.903
507.426
473.555
444.321
416.195
395.590
381.616
370.859
361.751
355.809
354.693
357.070
362.625
369.860
375.164
372.628
366.439
361.694
358.564
358.086
358.606
361.017
365.440
370.897
376.717
381.708
387.260
395.886
410.956
435.344
469.304
507.930
539.170
550.549
536.217
504.007
467.467
439.278
425.137
423.958
430.338
436.907
440.383
440.816
437.863
432.358
427.125
424.021
423.861
426.164
430.143
435.329
440.946
445.758
449.181
451.320
451.994
450.858
448.553
446.247
443.760
440.232
435.827
431.330
427.657
425.832
427.579
435.208
450.364
473.707
504.648
539.925
575.545
605.833
624.910
629.315
617.159
589.460
551.464
508.618
465.893
427.974
397.325
374.474
359.392
350.576
346.248
344.951
345.450
346.702
348.243
349.795
351.402
353.586
357.004
363.169
374.119
391.935
418.973
457.663
509.616
574.874
653.170
741.778
834.685
925.712
1007.282
1070.707
1107.516
1114.356
1091.688
1040.283
965.114
873.959
774.698
674.193
578.617
493.936
423.065
365.793
321.729
289.832
268.013
254.129
246.213
242.885
242.837
244.831
248.063
251.865
255.593
258.882
261.616
263.670
265.015
265.768
266.093
266.118
265.820
265.105
263.858
261.974
259.286
255.660
250.961
245.252
238.733
231.583
224.032
216.384
208.976
202.128
196.044
190.746
186.260
182.604
179.683
177.355
175.460
173.864
172.465
171.194
169.966
168.730
167.492
166.276
165.116
164.033
163.029
162.111
161.277
160.548
159.944
159.500
159.258
159.223
159.334
159.516
159.690
159.786
159.781
159.677
159.456
159.112
158.619
157.953
157.072
155.948
154.583
153.033
151.339
149.538
147.691
145.813
143.934
142.078
140.279
138.555
136.934
135.452
134.126
132.976
131.994
131.187
130.533
130.035
129.697
129.513
129.485
129.612
129.898
130.318
130.858
131.496
132.224
133.010
133.817
134.628
135.402
136.112
136.729
137.239
137.612
137.828
137.867
137.745
137.467
137.047
136.510
135.860
135.158
134.451
133.800
133.250
132.865
132.741
132.966
133.634
134.837
136.658
139.108
142.201
145.948
150.360
155.424
161.042
167.108
173.500
180.105
186.793
193.373
199.605
205.262
210.110
213.946
216.622
218.106
218.359
217.324
214.957
211.306
206.526
200.801
194.306
187.233
179.750
172.057
164.351
156.830
149.691
143.125
137.242
132.030
127.485
123.596
120.364
117.763
115.730
114.179
113.036
112.214
111.624
111.197
110.839
110.470
110.004
109.363
108.463
107.300
105.930
104.395
102.750
101.033
99.318
97.644
96.097
94.734
93.634
92.850
92.456
92.478
92.935
93.863
95.278
97.215
99.663
102.575
105.871
109.489
113.342
117.376
121.495
125.597
129.544
133.222
136.519
139.292
141.457
142.959
143.784
143.883
143.249
141.840
139.656
136.747
133.220
129.178
124.700
119.901
114.865
109.707
104.518
99.421
94.513
89.910
85.706
81.995
78.812
76.189
74.173
72.793
72.090
72.089
72.784
74.138
76.138
78.745
81.947
85.699
89.981
94.700
99.788
105.184
110.801
116.585
122.435
128.287
133.995
139.478
144.602
149.284
153.388
156.850
159.634
161.692
163.020
163.563
163.319
162.233
160.342
157.699
154.374
150.409
145.891
140.859
135.399
129.560
123.439
117.113
110.645
104.134
97.639
91.255
85.016
78.978
73.179
67.664
62.467
57.641
53.215
49.186
45.533
42.233
39.262
36.593
34.210
32.082
30.194
28.518
27.040
25.731
24.575
23.547
22.626
21.800
21.053
20.381
19.768
19.207
18.684
18.193
17.723
17.277
16.855
16.457
16.082
15.731
15.407
15.106
14.832
14.583
14.359
14.159
13.986
13.836
13.712
13.612
13.537
13.488
13.463
13.464
13.489
13.540
13.618
13.731
13.888
14.101
14.376
14.724
15.155
15.677
16.302
17.042
17.911
18.918
20.078
21.402
22.904
24.593
26.468
28.520
30.741
33.120
35.648
38.320
41.121
44.043
47.052
50.110
53.175
56.216
59.187
62.060
64.783
67.339
69.681
71.781
73.618
75.150
76.359
77.199
77.662
77.709
77.369
76.649
75.580
74.170
72.446
70.427
68.125
65.573
62.798
59.849
56.754
53.560
50.305
47.028
43.762
40.552
37.410
34.359
31.407
28.576
25.880
23.332
20.951
18.749
16.728
14.878
13.194
11.667
10.290
9.053
7.951
6.974
6.114
5.361
4.707
4.141
3.653
3.233
2.872
2.560
2.288
2.051
1.846
1.669
1.517
1.385
1.270
1.169
1.079
0.996
0.920
0.851
0.788
0.729
0.676
0.626
0.579
0.535
0.494
0.455
0.419
0.384
0.353
0.323
0.296
0.271
0.248
0.227
0.209
0.192
0.176
0.163
0.151
0.140
0.130
0.121
0.114
0.107
0.101
0.096
0.091
0.087
0.084
0.081
0.078
0.075
0.073
0.071
0.069
0.067
0.065
0.064
0.062
0.061
0.059
0.058
0.056
0.055
0.054
0.052
0.051
0.050
0.049
0.048
0.047
0.046
0.045
0.044
0.043
0.042
0.041
0.040
0.040
0.039
0.038
0.037
0.036
0.036
0.035
0.034
0.033
0.032
0.032
0.031
0.030
0.029
0.028
0.027
0.026
0.025
0.024
0.023
0.022
0.021
0.020
0.019
0.018
0.017
0.016
0.015
0.014
0.013
0.012
0.011
0.010
0.009
0.008
0.007
0.007
0.006
0.006
0.005
0.004
0.004
0.003
0.003
0.003
0.002
0.002
0.002
0.002
0.001
0.001
0.001
0.001
0.001
0.001
0.001
0.000
0.000
0.000
0.000
0.000
0.000
0.000
0.000
0.000
0.000
0.000
0.000
0.000
0.000
0.000
0.000
0.000
0.000
0.000
0.000
0.000
0.000
0.000
0.000
0.000
0.000
0.000
0.000
0.000
0.000
-0.000
-0.000
-0.000
-0.000
-0.000
-0.000
-0.000
-0.000
-0.000
-0.000
0.000
0.000
0.000
0.000
0.000
0.000
0.000
0.000
0.000
0.000
0.000
-0.000
-0.000
-0.000
-0.000
-0.000
-0.000
-0.000
-0.000
-0.000
-0.000
0.000
0.000
0.000
0.000
0.000
0.000
0
0
0
0
0
0
0
0
0
0
0
0
0
0
0
0
0
0
0
0
0
0
0
0
0
0
0
0
0
0
0
0
0
0
0
0
0
0
0
0
0
0
0
0
0
0
0
0
0
0
0
0
0
0
0
0
0
0
0
0
0
0
0
0
0
0
0
0
0
0
0
0
0
0
0
0
0
0
0
0
0
0
0
0
0
0
0
0
0
0
0
0
0
0
0
0
0
0
0
0
0
0
0
0
0
0
0
0
0
0
0
0
0
0
0
0
0
0
0
0
0
0
0
0
0
0
0
0
0
0
0
0
0
0
0
0
0
0
0
0
0
0
0
0
0
0
0
0
0
0
0
0
0
0
0
0
0
0
0
0
0
0
0
0
0
0
0
0
0
0
0
0
0
0
0
0
0
0
0
0
0
0
0
0
0
0
0
0
0
0
0
0
0
0
0
0
0
0
0
0
0
0
0
0
0
0
0
0
0
0
0
0
0
0
0
0
0
0
0
0
0
0
0
0
0
0
0
0
0
0
0
0
0
0
0
0
0
0
0
0
0
0
0
0
0
0
0
0
0
0
0
0
0
0
0
0
0
0
0
0
0
0
0
0
0
0
0
0
0
0
0
0
0
0
0
0
0
0
0
0
0
0
0
0
0
0
0
0
0
0
0
0
0
0
0
0
0
0
0
0
0
0
0
0
0
0
0
0
0
0
0
0
0
0
0
0
0
0
0
0
0
0
0
0
0
0
0
0
0
0
0
0
0
0
0
0
0
0
0
0
0
0
0
0
0
0
0
0
0
0
0
0
0
0
0
0
0
0
0
0
0
0
0
0
0
0
0
0
0
0
0
0
0
0
0
0
0
0
0
0
0
0
0
0
0
0
0
0
0
0
0
0
0
0
0
0
0
0
0
0
0
0
0
0
0
0
0
0
0
0
0
0
0
0
0
0
0
0
0
0
0
0
0
0
0
0
0
0
0
0
0
0
0
0
0
0
0
0
0
0
0
0
0
0
0
0
0
0
0
0
0
0
0
0
0
0
0
0
0
0
0
0
0
0
0
0
0
0
0
0
0
0
0
0
0
0
0
0
$MCA_CAL:
3
-1.4656616 2.9313233 0.00000000000000
$ENER_FIT:
-1.4656616 2.9313233 0.00000000000000
$MCA_CAL_DATA:
3
298 872
597 1749
896 2625
$CAMBIO:
Parent file specification: C:\GADRAS-DRF\Temp\152EU_125.0_50.0_lead_0.92_8.5.pcf
Successful read of spectrum: Yes
Error message: None
Warning: None
Information: None
Neutrons: 0
Number of spectral records in the parent file: 1
Record number of this spectrum in the parent file: 1
Date and time of acquisition read successfully from the original file: Yes
Live time read successfully from the original file: Yes
True time read successfully from the original file: Yes
GADRAS Tag character is:  
Version: 130122
Parent file type: Sandia GADRAS PCF
