$SPEC_ID:
152EU,1uC{82,0.51}
$MEAS_TIM:
3600.00 3600.00
$DATE_MEA:
3/9/2018 5:22:25 PM
$DATA:
0 1193
1471.778
1384.506
1266.351
1161.532
1020.314
899.792
790.353
699.478
626.978
563.132
526.544
498.899
484.153
483.356
478.794
466.166
432.992
405.892
399.894
404.278
414.981
430.948
443.368
440.757
436.190
437.430
443.902
446.514
446.321
453.124
469.485
488.357
503.097
511.873
519.975
534.110
566.964
641.031
781.959
983.835
1175.649
1244.343
1140.803
922.299
698.543
552.473
488.413
476.474
488.403
506.093
515.033
513.657
504.189
489.798
477.181
469.613
467.386
469.321
474.554
482.047
490.246
497.137
501.768
504.584
505.227
503.732
501.454
499.070
496.443
492.604
487.178
480.916
473.842
465.945
460.097
460.460
472.167
499.722
546.259
609.259
680.718
747.289
793.109
806.364
779.755
720.948
643.128
561.149
488.666
431.723
393.076
369.883
357.829
353.244
352.869
354.858
357.951
361.347
364.449
366.669
367.385
366.499
364.586
362.712
363.060
368.257
382.468
410.370
457.182
528.482
627.158
752.136
899.620
1056.435
1206.664
1331.588
1410.194
1428.018
1386.178
1288.964
1150.611
990.745
827.377
674.597
545.264
443.190
366.555
312.736
276.958
254.136
240.549
233.926
232.169
234.099
238.879
245.617
253.304
260.896
267.538
272.589
275.493
276.395
275.947
274.791
273.599
273.029
273.539
274.755
276.070
276.859
276.330
273.706
268.494
260.921
251.337
240.249
228.561
217.211
206.964
198.142
191.027
185.732
181.999
179.507
177.925
176.940
176.227
175.507
174.661
173.643
172.398
170.965
169.411
167.805
166.221
164.719
163.352
162.169
161.180
160.407
159.852
159.541
159.513
159.780
160.289
160.913
161.526
162.039
162.452
162.792
163.058
163.178
163.024
162.485
161.490
160.103
158.395
156.450
154.323
152.060
149.734
147.383
145.052
142.776
140.604
138.565
136.695
135.039
133.618
132.420
131.411
130.567
129.853
129.294
128.921
128.750
128.792
129.025
129.433
129.989
130.685
131.522
132.509
133.643
134.884
136.198
137.523
138.808
139.989
141.006
141.784
142.262
142.431
142.314
141.918
141.261
140.361
139.207
137.815
136.193
134.439
132.678
131.045
129.681
128.689
128.162
128.193
128.880
130.325
132.655
135.996
140.474
146.159
153.013
160.997
170.055
180.083
190.743
201.652
212.405
222.609
231.818
239.589
245.426
248.884
249.741
248.089
244.065
237.819
229.521
219.579
208.457
196.639
184.576
172.665
161.221
150.560
140.991
132.770
125.919
120.388
116.134
113.109
111.212
110.255
110.056
110.427
111.196
112.216
113.350
114.487
115.487
116.233
116.616
116.541
115.896
114.582
112.616
110.114
107.211
104.027
100.713
97.366
94.122
91.089
88.392
86.133
84.421
83.339
82.972
83.419
84.741
86.944
89.995
93.888
98.594
104.072
110.172
116.756
123.660
130.745
137.816
144.636
150.956
156.496
161.022
164.309
166.302
166.931
166.173
163.965
160.324
155.399
149.409
142.569
135.067
127.131
118.948
110.735
102.675
94.989
87.857
81.386
75.610
70.585
66.347
62.938
60.382
58.665
57.782
57.716
58.464
60.009
62.352
65.478
69.391
74.070
79.524
85.682
92.474
99.841
107.696
115.984
124.563
133.293
141.958
150.403
158.425
165.876
172.583
178.431
183.285
186.987
189.432
190.527
190.328
188.839
186.115
182.182
177.092
170.948
163.940
156.200
147.916
139.223
130.289
121.243
112.195
103.290
94.635
86.372
78.569
71.280
64.544
58.403
52.892
48.054
43.853
40.227
37.113
34.446
32.163
30.199
28.521
27.094
25.890
24.874
24.021
23.295
22.674
22.129
21.637
21.173
20.709
20.232
19.735
19.226
18.705
18.179
17.647
17.117
16.595
16.091
15.610
15.162
14.757
14.398
14.089
13.830
13.620
13.460
13.351
13.290
13.270
13.279
13.308
13.346
13.382
13.406
13.414
13.407
13.380
13.335
13.271
13.186
13.090
13.006
12.951
12.946
13.013
13.170
13.444
13.863
14.462
15.272
16.326
17.654
19.288
21.240
23.518
26.126
29.072
32.367
36.011
39.985
44.231
48.695
53.315
58.041
62.809
67.565
72.210
76.672
80.842
84.631
87.957
90.716
92.867
94.374
95.249
95.450
94.980
93.810
91.949
89.437
86.363
82.805
78.830
74.529
69.967
65.232
60.382
55.495
50.637
45.878
41.284
36.929
32.846
29.045
25.526
22.299
19.365
16.729
14.395
12.349
10.569
9.030
7.711
6.587
5.637
4.836
4.168
3.616
3.166
2.800
2.505
2.264
2.062
1.892
1.751
1.632
1.531
1.444
1.365
1.290
1.219
1.150
1.083
1.018
0.955
0.893
0.832
0.772
0.714
0.657
0.602
0.550
0.500
0.454
0.410
0.370
0.332
0.298
0.267
0.240
0.215
0.194
0.175
0.159
0.146
0.134
0.124
0.116
0.109
0.102
0.097
0.093
0.090
0.087
0.084
0.082
0.080
0.078
0.077
0.075
0.074
0.072
0.071
0.070
0.068
0.067
0.066
0.064
0.063
0.061
0.060
0.058
0.057
0.055
0.054
0.052
0.051
0.050
0.048
0.047
0.046
0.045
0.044
0.043
0.042
0.041
0.041
0.040
0.039
0.039
0.038
0.038
0.038
0.037
0.037
0.036
0.036
0.035
0.034
0.033
0.033
0.032
0.031
0.030
0.028
0.027
0.026
0.024
0.023
0.022
0.020
0.019
0.017
0.016
0.015
0.013
0.012
0.011
0.010
0.009
0.008
0.007
0.006
0.005
0.005
0.004
0.003
0.003
0.002
0.002
0.002
0.001
0.001
0.001
0.001
0.001
0.001
0.000
0.000
0.000
0.000
0.000
0.000
0.000
0.000
0.000
0.000
0.000
0.000
0.000
0.000
0.000
0.000
0.000
0.000
0.000
-0.000
-0.000
-0.000
-0.000
-0.000
-0.000
-0.000
-0.000
0.000
0.000
0.000
0.000
0.000
0.000
0.000
0.000
-0.000
-0.000
-0.000
-0.000
-0.000
-0.000
-0.000
-0.000
-0.000
0.000
0.000
0.000
0.000
0.000
0
0
0
0
0
0
0
0
0
0
0
0
0
0
0
0
0
0
0
0
0
0
0
0
0
0
0
0
0
0
0
0
0
0
0
0
0
0
0
0
0
0
0
0
0
0
0
0
0
0
0
0
0
0
0
0
0
0
0
0
0
0
0
0
0
0
0
0
0
0
0
0
0
0
0
0
0
0
0
0
0
0
0
0
0
0
0
0
0
0
0
0
0
0
0
0
0
0
0
0
0
0
0
0
0
0
0
0
0
0
0
0
0
0
0
0
0
0
0
0
0
0
0
0
0
0
0
0
0
0
0
0
0
0
0
0
0
0
0
0
0
0
0
0
0
0
0
0
0
0
0
0
0
0
0
0
0
0
0
0
0
0
0
0
0
0
0
0
0
0
0
0
0
0
0
0
0
0
0
0
0
0
0
0
0
0
0
0
0
0
0
0
0
0
0
0
0
0
0
0
0
0
0
0
0
0
0
0
0
0
0
0
0
0
0
0
0
0
0
0
0
0
0
0
0
0
0
0
0
0
0
0
0
0
0
0
0
0
0
0
0
0
0
0
0
0
0
0
0
0
0
0
0
0
0
0
0
0
0
0
0
0
0
0
0
0
0
0
0
0
0
0
0
0
0
0
0
0
0
0
0
0
0
0
0
0
0
0
0
0
0
0
0
0
0
0
0
0
0
0
0
0
0
0
0
0
0
0
0
0
0
0
0
0
0
0
0
0
0
0
0
0
0
0
0
0
0
0
0
0
0
0
0
0
0
0
0
0
0
0
0
0
0
0
0
0
0
0
0
0
0
0
0
0
0
0
0
0
0
0
0
0
0
0
0
0
0
0
0
0
0
0
0
0
0
0
0
0
0
0
0
0
0
0
0
0
0
0
0
0
0
0
0
0
0
0
0
0
0
0
0
0
0
0
0
0
0
0
0
0
0
0
0
0
0
0
0
0
0
0
0
0
0
0
0
0
0
0
0
0
0
0
0
0
0
0
0
0
0
0
0
0
0
0
0
0
0
0
0
0
0
0
0
0
0
0
0
0
0
0
0
0
0
0
0
0
0
0
0
0
0
0
0
0
0
0
0
0
0
0
0
0
0
0
0
0
0
0
0
0
0
0
0
0
0
0
0
0
0
0
0
0
0
$MCA_CAL:
3
-1.4656616 2.9313233 0.00000000000000
$ENER_FIT:
-1.4656616 2.9313233 0.00000000000000
$MCA_CAL_DATA:
3
298 872
597 1749
896 2625
$CAMBIO:
Parent file specification: C:\GADRAS-DRF\Temp\152EU_100.0_50.0_lead_0.51_7.0.pcf
Successful read of spectrum: Yes
Error message: None
Warning: None
Information: None
Neutrons: 0
Number of spectral records in the parent file: 1
Record number of this spectrum in the parent file: 1
Date and time of acquisition read successfully from the original file: Yes
Live time read successfully from the original file: Yes
True time read successfully from the original file: Yes
GADRAS Tag character is:  
Version: 130122
Parent file type: Sandia GADRAS PCF
