$SPEC_ID:
152EU,1uC{82,0.51}
$MEAS_TIM:
3600.00 3600.00
$DATE_MEA:
3/9/2018 5:22:25 PM
$DATA:
0 1193
1593.166
1507.076
1381.622
1268.322
1112.748
979.082
858.400
759.047
680.213
610.885
571.506
541.554
524.275
521.818
516.632
504.141
471.717
446.229
442.958
450.863
465.856
486.537
502.828
501.270
497.560
500.558
509.410
512.430
509.270
510.991
523.063
539.462
553.271
562.003
570.505
585.110
618.092
691.832
831.825
1032.454
1223.357
1291.569
1188.099
970.108
747.157
603.021
541.505
533.051
550.089
574.511
590.658
594.270
585.471
567.138
547.674
532.604
523.995
521.349
523.245
528.070
534.100
539.139
542.216
543.966
544.115
542.705
541.057
539.708
538.326
535.784
531.557
526.246
519.856
512.374
506.312
505.519
515.247
540.216
583.821
643.706
711.955
775.434
818.516
829.178
799.847
738.604
659.130
576.001
502.449
444.438
404.746
380.575
367.646
362.233
361.013
362.207
364.668
367.585
370.289
372.154
372.548
371.370
369.194
367.083
367.207
372.182
386.167
413.839
460.420
531.493
629.951
754.722
902.013
1058.657
1208.741
1333.521
1411.932
1429.491
1387.372
1289.927
1151.401
991.395
827.906
675.026
545.614
443.478
366.794
312.933
277.120
254.272
240.665
234.029
232.261
234.184
238.958
245.690
253.371
260.958
267.595
272.643
275.543
276.442
275.991
274.832
273.637
273.065
273.573
274.788
276.104
276.893
276.366
273.743
268.532
260.961
251.380
240.293
228.608
217.259
207.014
198.194
191.081
185.788
182.057
179.567
177.985
176.999
176.284
175.563
174.715
173.695
172.448
171.012
169.456
167.848
166.262
164.757
163.389
162.203
161.212
160.436
159.879
159.566
159.536
159.803
160.311
160.935
161.547
162.059
162.471
162.811
163.076
163.195
163.041
162.501
161.506
160.118
158.409
156.464
154.337
152.073
149.747
147.396
145.065
142.789
140.617
138.577
136.707
135.051
133.630
132.432
131.422
130.579
129.864
129.305
128.931
128.760
128.801
129.033
129.441
129.996
130.692
131.528
132.515
133.648
134.888
136.202
137.526
138.811
139.991
141.008
141.785
142.264
142.432
142.315
141.919
141.262
140.362
139.207
137.816
136.193
134.439
132.678
131.046
129.682
128.689
128.163
128.193
128.880
130.325
132.655
135.996
140.474
146.159
153.013
160.997
170.055
180.083
190.743
201.652
212.405
222.609
231.818
239.589
245.426
248.884
249.741
248.089
244.065
237.819
229.521
219.579
208.457
196.639
184.576
172.665
161.221
150.560
140.991
132.770
125.919
120.388
116.134
113.109
111.212
110.255
110.056
110.427
111.196
112.216
113.350
114.487
115.487
116.233
116.616
116.541
115.896
114.582
112.616
110.114
107.211
104.027
100.713
97.366
94.122
91.089
88.392
86.133
84.421
83.339
82.972
83.419
84.741
86.944
89.995
93.888
98.594
104.072
110.172
116.756
123.660
130.745
137.816
144.636
150.956
156.496
161.022
164.309
166.302
166.931
166.173
163.965
160.324
155.399
149.409
142.569
135.067
127.131
118.948
110.735
102.675
94.989
87.857
81.386
75.610
70.585
66.347
62.938
60.382
58.665
57.782
57.716
58.464
60.009
62.352
65.478
69.391
74.070
79.524
85.682
92.474
99.841
107.696
115.984
124.563
133.293
141.958
150.403
158.425
165.876
172.583
178.431
183.285
186.987
189.432
190.527
190.328
188.839
186.115
182.182
177.092
170.948
163.940
156.200
147.916
139.223
130.289
121.243
112.195
103.290
94.635
86.372
78.569
71.280
64.544
58.403
52.892
48.054
43.853
40.227
37.113
34.446
32.163
30.199
28.521
27.094
25.890
24.874
24.021
23.295
22.674
22.129
21.637
21.173
20.709
20.232
19.735
19.226
18.705
18.179
17.647
17.117
16.595
16.091
15.610
15.162
14.757
14.398
14.089
13.830
13.620
13.460
13.351
13.290
13.270
13.279
13.308
13.346
13.382
13.406
13.414
13.407
13.380
13.335
13.271
13.186
13.090
13.006
12.951
12.946
13.013
13.170
13.444
13.863
14.462
15.272
16.326
17.654
19.288
21.240
23.518
26.126
29.072
32.367
36.011
39.985
44.231
48.695
53.315
58.041
62.809
67.565
72.210
76.672
80.842
84.631
87.957
90.716
92.867
94.374
95.249
95.450
94.980
93.810
91.949
89.437
86.363
82.805
78.830
74.529
69.967
65.232
60.382
55.495
50.637
45.878
41.284
36.929
32.846
29.045
25.526
22.299
19.365
16.729
14.395
12.349
10.569
9.030
7.711
6.587
5.637
4.836
4.168
3.616
3.166
2.800
2.505
2.264
2.062
1.892
1.751
1.632
1.531
1.444
1.365
1.290
1.219
1.150
1.083
1.018
0.955
0.893
0.832
0.772
0.714
0.657
0.602
0.550
0.500
0.454
0.410
0.370
0.332
0.298
0.267
0.240
0.215
0.194
0.175
0.159
0.146
0.134
0.124
0.116
0.109
0.102
0.097
0.093
0.090
0.087
0.084
0.082
0.080
0.078
0.077
0.075
0.074
0.072
0.071
0.070
0.068
0.067
0.066
0.064
0.063
0.061
0.060
0.058
0.057
0.055
0.054
0.052
0.051
0.050
0.048
0.047
0.046
0.045
0.044
0.043
0.042
0.041
0.041
0.040
0.039
0.039
0.038
0.038
0.038
0.037
0.037
0.036
0.036
0.035
0.034
0.033
0.033
0.032
0.031
0.030
0.028
0.027
0.026
0.024
0.023
0.022
0.020
0.019
0.017
0.016
0.015
0.013
0.012
0.011
0.010
0.009
0.008
0.007
0.006
0.005
0.005
0.004
0.003
0.003
0.002
0.002
0.002
0.001
0.001
0.001
0.001
0.001
0.001
0.000
0.000
0.000
0.000
0.000
0.000
0.000
0.000
0.000
0.000
0.000
0.000
0.000
0.000
0.000
0.000
0.000
0.000
0.000
-0.000
-0.000
-0.000
-0.000
-0.000
-0.000
-0.000
-0.000
0.000
0.000
0.000
0.000
0.000
0.000
0.000
0.000
-0.000
-0.000
-0.000
-0.000
-0.000
-0.000
-0.000
-0.000
-0.000
0.000
0.000
0.000
0.000
0.000
0
0
0
0
0
0
0
0
0
0
0
0
0
0
0
0
0
0
0
0
0
0
0
0
0
0
0
0
0
0
0
0
0
0
0
0
0
0
0
0
0
0
0
0
0
0
0
0
0
0
0
0
0
0
0
0
0
0
0
0
0
0
0
0
0
0
0
0
0
0
0
0
0
0
0
0
0
0
0
0
0
0
0
0
0
0
0
0
0
0
0
0
0
0
0
0
0
0
0
0
0
0
0
0
0
0
0
0
0
0
0
0
0
0
0
0
0
0
0
0
0
0
0
0
0
0
0
0
0
0
0
0
0
0
0
0
0
0
0
0
0
0
0
0
0
0
0
0
0
0
0
0
0
0
0
0
0
0
0
0
0
0
0
0
0
0
0
0
0
0
0
0
0
0
0
0
0
0
0
0
0
0
0
0
0
0
0
0
0
0
0
0
0
0
0
0
0
0
0
0
0
0
0
0
0
0
0
0
0
0
0
0
0
0
0
0
0
0
0
0
0
0
0
0
0
0
0
0
0
0
0
0
0
0
0
0
0
0
0
0
0
0
0
0
0
0
0
0
0
0
0
0
0
0
0
0
0
0
0
0
0
0
0
0
0
0
0
0
0
0
0
0
0
0
0
0
0
0
0
0
0
0
0
0
0
0
0
0
0
0
0
0
0
0
0
0
0
0
0
0
0
0
0
0
0
0
0
0
0
0
0
0
0
0
0
0
0
0
0
0
0
0
0
0
0
0
0
0
0
0
0
0
0
0
0
0
0
0
0
0
0
0
0
0
0
0
0
0
0
0
0
0
0
0
0
0
0
0
0
0
0
0
0
0
0
0
0
0
0
0
0
0
0
0
0
0
0
0
0
0
0
0
0
0
0
0
0
0
0
0
0
0
0
0
0
0
0
0
0
0
0
0
0
0
0
0
0
0
0
0
0
0
0
0
0
0
0
0
0
0
0
0
0
0
0
0
0
0
0
0
0
0
0
0
0
0
0
0
0
0
0
0
0
0
0
0
0
0
0
0
0
0
0
0
0
0
0
0
0
0
0
0
0
0
0
0
0
0
0
0
0
0
0
0
0
0
0
0
0
0
0
0
0
0
0
0
0
0
0
0
0
0
0
0
0
0
0
0
0
0
0
0
0
$MCA_CAL:
3
-1.4656616 2.9313233 0.00000000000000
$ENER_FIT:
-1.4656616 2.9313233 0.00000000000000
$MCA_CAL_DATA:
3
298 872
597 1749
896 2625
$CAMBIO:
Parent file specification: C:\GADRAS-DRF\Temp\152EU_75.0_50.0_lead_0.51_7.0.pcf
Successful read of spectrum: Yes
Error message: None
Warning: None
Information: None
Neutrons: 0
Number of spectral records in the parent file: 1
Record number of this spectrum in the parent file: 1
Date and time of acquisition read successfully from the original file: Yes
Live time read successfully from the original file: Yes
True time read successfully from the original file: Yes
GADRAS Tag character is:  
Version: 130122
Parent file type: Sandia GADRAS PCF
