$SPEC_ID:
152EU,1uC{82,0.92}
$MEAS_TIM:
3600.00 3600.00
$DATE_MEA:
3/9/2018 5:22:25 PM
$DATA:
0 1193
1442.707
1346.306
1233.859
1152.196
1024.972
905.398
799.146
710.849
636.565
570.834
533.395
501.279
470.057
447.091
431.400
419.563
410.339
405.967
409.848
418.240
431.212
446.812
454.510
453.554
445.174
439.018
435.641
433.969
432.796
432.976
435.574
439.993
444.946
449.042
453.422
460.329
473.595
497.086
532.501
575.481
612.805
625.984
610.613
574.244
533.216
507.320
499.023
504.776
520.888
537.352
547.826
551.484
546.857
535.145
521.216
509.216
501.649
498.264
498.384
501.184
504.972
508.241
510.847
512.659
513.279
512.901
512.179
511.177
509.595
507.253
504.018
499.665
494.287
489.399
487.066
489.942
500.593
520.324
549.474
584.897
621.986
654.071
673.755
676.248
658.783
623.187
576.617
526.036
477.384
435.767
403.055
379.981
365.529
357.407
353.594
352.675
353.341
354.738
356.150
357.201
357.882
358.366
359.601
362.772
369.720
383.134
405.795
440.615
490.529
557.306
639.675
735.820
840.385
944.532
1039.085
1114.368
1160.330
1169.163
1141.856
1081.569
993.596
887.804
774.824
663.614
560.571
471.711
399.975
344.236
303.046
274.482
255.986
245.004
239.508
238.185
239.752
243.122
247.523
252.192
256.527
260.233
263.060
264.851
265.818
266.225
266.335
266.247
266.018
265.696
265.090
263.862
261.631
258.175
253.472
247.522
240.392
232.412
224.034
215.686
207.736
200.440
194.068
188.807
184.591
181.277
178.711
176.742
175.193
173.901
172.699
171.522
170.325
169.077
167.762
166.421
165.118
163.904
162.805
161.820
160.946
160.190
159.571
159.131
158.920
158.955
159.175
159.483
159.782
159.992
160.092
160.092
159.980
159.750
159.350
158.738
157.849
156.656
155.199
153.547
151.750
149.854
147.907
145.921
143.925
141.943
140.021
138.193
136.501
134.993
133.665
132.509
131.508
130.663
129.956
129.411
129.049
128.876
128.902
129.102
129.461
129.947
130.538
131.220
131.993
132.843
133.753
134.712
135.658
136.539
137.298
137.896
138.313
138.550
138.606
138.488
138.190
137.715
137.079
136.270
135.307
134.250
133.200
132.243
131.474
130.993
130.879
131.220
132.098
133.607
135.806
138.731
142.416
146.891
152.186
158.244
164.937
172.116
179.645
187.372
195.081
202.469
209.249
215.127
219.840
223.205
225.150
225.603
224.465
221.672
217.350
211.708
204.971
197.358
189.105
180.440
171.621
162.902
154.535
146.769
139.745
133.506
128.075
123.488
119.773
116.916
114.803
113.322
112.355
111.794
111.522
111.428
111.424
111.400
111.255
110.893
110.282
109.411
108.278
106.884
105.221
103.322
101.257
99.131
97.009
94.991
93.153
91.584
90.348
89.536
89.220
89.470
90.343
91.818
93.889
96.525
99.724
103.455
107.648
112.173
116.931
121.796
126.667
131.407
135.884
139.965
143.484
146.318
148.309
149.384
149.527
148.778
147.139
144.643
141.290
137.164
132.404
127.126
121.484
115.600
109.620
103.651
97.819
92.226
86.993
82.218
78.023
74.461
71.553
69.333
67.816
67.033
66.999
67.720
69.162
71.311
74.132
77.612
81.711
86.404
91.601
97.231
103.235
109.524
116.043
122.677
129.336
135.856
142.137
148.028
153.426
158.190
162.270
165.605
168.113
169.760
170.458
170.182
168.927
166.778
163.795
160.050
155.587
150.498
144.833
138.701
132.167
125.336
118.294
111.114
103.903
96.726
89.682
82.839
76.290
70.114
64.395
59.168
54.422
50.121
46.237
42.745
39.614
36.819
34.329
32.127
30.183
28.479
26.986
25.688
24.555
23.569
22.708
21.949
21.274
20.657
20.083
19.531
19.003
18.494
18.007
17.539
17.092
16.663
16.255
15.867
15.502
15.164
14.853
14.573
14.324
14.109
13.923
13.765
13.632
13.524
13.435
13.365
13.313
13.277
13.259
13.256
13.272
13.303
13.352
13.422
13.526
13.675
13.886
14.170
14.539
15.009
15.592
16.307
17.166
18.191
19.396
20.799
22.415
24.260
26.330
28.618
31.112
33.801
36.680
39.736
42.960
46.324
49.783
53.283
56.786
60.236
63.595
66.804
69.835
72.631
75.151
77.365
79.217
80.681
81.696
82.250
82.311
81.919
81.080
79.829
78.172
76.140
73.754
71.031
68.028
64.784
61.360
57.795
54.146
50.461
46.792
43.171
39.630
36.185
32.866
29.689
26.682
23.867
21.263
18.877
16.698
14.720
12.931
11.324
9.890
8.620
7.504
6.531
5.688
4.962
4.341
3.811
3.360
2.974
2.642
2.357
2.114
1.907
1.732
1.583
1.456
1.344
1.244
1.153
1.070
0.995
0.926
0.863
0.804
0.748
0.694
0.643
0.594
0.548
0.504
0.462
0.423
0.387
0.353
0.322
0.294
0.268
0.245
0.223
0.204
0.187
0.171
0.158
0.145
0.135
0.125
0.117
0.110
0.103
0.098
0.093
0.089
0.085
0.082
0.079
0.077
0.075
0.073
0.071
0.069
0.068
0.066
0.064
0.063
0.062
0.060
0.059
0.057
0.056
0.055
0.053
0.052
0.051
0.050
0.049
0.048
0.046
0.045
0.044
0.044
0.043
0.042
0.041
0.040
0.039
0.039
0.038
0.037
0.037
0.036
0.035
0.034
0.034
0.033
0.032
0.031
0.030
0.029
0.028
0.027
0.026
0.025
0.024
0.023
0.022
0.021
0.020
0.019
0.017
0.016
0.015
0.014
0.013
0.012
0.011
0.010
0.009
0.008
0.008
0.007
0.006
0.005
0.005
0.004
0.004
0.003
0.003
0.003
0.002
0.002
0.002
0.001
0.001
0.001
0.001
0.001
0.001
0.000
0.000
0.000
0.000
0.000
0.000
0.000
0.000
0.000
0.000
0.000
0.000
0.000
0.000
0.000
0.000
0.000
0.000
0.000
0.000
0.000
0.000
0.000
0.000
0.000
0.000
0.000
0.000
0.000
-0.000
-0.000
-0.000
-0.000
-0.000
-0.000
-0.000
-0.000
-0.000
0.000
0.000
0.000
0.000
0.000
0.000
0.000
0.000
0.000
0.000
0.000
0.000
0.000
0.000
0.000
0.000
0
0
0
0
0
0
0
0
0
0
0
0
0
0
0
0
0
0
0
0
0
0
0
0
0
0
0
0
0
0
0
0
0
0
0
0
0
0
0
0
0
0
0
0
0
0
0
0
0
0
0
0
0
0
0
0
0
0
0
0
0
0
0
0
0
0
0
0
0
0
0
0
0
0
0
0
0
0
0
0
0
0
0
0
0
0
0
0
0
0
0
0
0
0
0
0
0
0
0
0
0
0
0
0
0
0
0
0
0
0
0
0
0
0
0
0
0
0
0
0
0
0
0
0
0
0
0
0
0
0
0
0
0
0
0
0
0
0
0
0
0
0
0
0
0
0
0
0
0
0
0
0
0
0
0
0
0
0
0
0
0
0
0
0
0
0
0
0
0
0
0
0
0
0
0
0
0
0
0
0
0
0
0
0
0
0
0
0
0
0
0
0
0
0
0
0
0
0
0
0
0
0
0
0
0
0
0
0
0
0
0
0
0
0
0
0
0
0
0
0
0
0
0
0
0
0
0
0
0
0
0
0
0
0
0
0
0
0
0
0
0
0
0
0
0
0
0
0
0
0
0
0
0
0
0
0
0
0
0
0
0
0
0
0
0
0
0
0
0
0
0
0
0
0
0
0
0
0
0
0
0
0
0
0
0
0
0
0
0
0
0
0
0
0
0
0
0
0
0
0
0
0
0
0
0
0
0
0
0
0
0
0
0
0
0
0
0
0
0
0
0
0
0
0
0
0
0
0
0
0
0
0
0
0
0
0
0
0
0
0
0
0
0
0
0
0
0
0
0
0
0
0
0
0
0
0
0
0
0
0
0
0
0
0
0
0
0
0
0
0
0
0
0
0
0
0
0
0
0
0
0
0
0
0
0
0
0
0
0
0
0
0
0
0
0
0
0
0
0
0
0
0
0
0
0
0
0
0
0
0
0
0
0
0
0
0
0
0
0
0
0
0
0
0
0
0
0
0
0
0
0
0
0
0
0
0
0
0
0
0
0
0
0
0
0
0
0
0
0
0
0
0
0
0
0
0
0
0
0
0
0
0
0
0
0
0
0
0
0
0
0
0
0
0
0
0
0
0
0
0
0
0
0
0
0
0
0
0
0
0
0
0
0
0
$MCA_CAL:
3
-1.4656616 2.9313233 0.00000000000000
$ENER_FIT:
-1.4656616 2.9313233 0.00000000000000
$MCA_CAL_DATA:
3
298 872
597 1749
896 2625
$CAMBIO:
Parent file specification: C:\GADRAS-DRF\Temp\152EU_75.0_50.0_lead_0.92_8.0.pcf
Successful read of spectrum: Yes
Error message: None
Warning: None
Information: None
Neutrons: 0
Number of spectral records in the parent file: 1
Record number of this spectrum in the parent file: 1
Date and time of acquisition read successfully from the original file: Yes
Live time read successfully from the original file: Yes
True time read successfully from the original file: Yes
GADRAS Tag character is:  
Version: 130122
Parent file type: Sandia GADRAS PCF
