$SPEC_ID:
152EU,1uC{13,4.18}
$MEAS_TIM:
3600.00 3600.00
$DATE_MEA:
3/9/2018 5:22:25 PM
$DATA:
0 1193
1312.352
1337.848
1386.001
1998.386
1683.146
1319.840
1087.565
880.518
795.042
761.411
936.636
1588.762
2879.194
3727.007
3139.394
2121.656
1352.942
925.402
795.672
828.033
899.839
980.589
1052.079
1108.138
1171.502
1244.300
1304.685
1351.555
1392.590
1426.567
1463.509
1511.226
1552.768
1575.199
1606.729
1671.833
1810.500
2045.136
2363.778
2723.914
2998.825
3035.462
2755.095
2281.704
1766.593
1333.434
1050.778
907.242
851.153
836.757
836.214
836.585
831.698
820.181
805.572
791.534
780.963
773.893
769.496
767.197
766.013
764.426
761.943
759.111
755.752
751.170
745.783
740.643
735.480
729.349
722.159
714.344
706.667
700.152
696.797
699.409
709.817
728.395
754.363
784.515
814.826
838.991
850.421
845.643
823.196
784.550
735.422
681.725
628.875
581.971
543.527
513.802
492.601
478.605
470.257
465.936
463.910
462.736
461.905
461.196
460.609
460.502
461.370
464.629
472.274
486.155
507.680
538.159
578.710
630.173
693.232
765.900
842.630
917.705
984.215
1034.333
1060.446
1059.939
1033.913
983.703
913.682
830.203
739.728
648.270
561.595
485.282
421.875
370.812
331.356
302.402
282.211
269.027
261.197
257.471
256.642
257.569
259.544
261.992
264.360
266.331
267.805
268.667
268.900
268.631
268.033
267.241
266.231
264.901
263.131
260.823
257.851
254.122
249.539
244.158
238.145
231.646
224.851
218.002
211.376
205.227
199.726
194.892
190.753
187.329
184.538
182.256
180.343
178.684
177.190
175.806
174.461
173.113
171.766
170.436
169.153
167.931
166.778
165.702
164.706
163.811
163.029
162.384
161.910
161.604
161.418
161.291
161.158
160.964
160.686
160.326
159.865
159.297
158.603
157.773
156.775
155.596
154.236
152.740
151.136
149.447
147.725
145.980
144.237
142.516
140.847
139.243
137.724
136.317
135.036
133.895
132.890
132.033
131.304
130.711
130.257
129.933
129.739
129.671
129.731
129.899
130.162
130.503
130.917
131.378
131.852
132.329
132.775
133.166
133.480
133.710
133.831
133.829
133.688
133.422
133.033
132.531
131.937
131.251
130.524
129.794
129.113
128.516
128.056
127.809
127.840
128.226
129.036
130.337
132.138
134.454
137.297
140.677
144.587
148.946
153.671
158.661
163.824
169.054
174.195
179.048
183.426
187.135
190.008
191.928
192.872
192.818
191.722
189.555
186.361
182.262
177.404
171.929
165.989
159.719
153.282
146.841
140.559
134.598
129.116
124.202
119.844
116.036
112.767
110.036
107.820
106.066
104.707
103.682
102.922
102.353
101.920
101.546
101.162
100.697
100.087
99.260
98.215
96.998
95.647
94.207
92.711
91.222
89.772
88.430
87.243
86.273
85.564
85.177
85.132
85.443
86.142
87.239
88.764
90.705
93.027
95.661
98.559
101.646
104.880
108.181
111.464
114.618
117.547
120.161
122.341
124.020
125.150
125.724
125.700
125.075
123.813
121.916
119.425
116.427
113.009
109.234
105.198
100.969
96.643
92.296
88.029
83.924
80.076
76.564
73.465
70.807
68.613
66.922
65.754
65.145
65.110
65.647
66.726
68.337
70.449
73.053
76.113
79.614
83.476
87.642
92.063
96.665
101.401
106.189
110.974
115.638
120.111
124.285
128.090
131.416
134.208
136.437
138.062
139.081
139.448
139.160
138.173
136.517
134.237
131.391
128.014
124.180
119.921
115.309
110.385
105.229
99.906
94.467
88.994
83.538
78.174
72.935
67.865
62.997
58.368
54.007
49.959
46.248
42.871
39.810
37.044
34.554
32.316
30.316
28.527
26.938
25.523
24.274
23.165
22.184
21.310
20.526
19.822
19.185
18.611
18.087
17.606
17.158
16.736
16.332
15.948
15.583
15.239
14.915
14.611
14.329
14.066
13.826
13.607
13.409
13.232
13.077
12.942
12.829
12.736
12.665
12.616
12.587
12.580
12.593
12.628
12.685
12.772
12.897
13.068
13.293
13.580
13.937
14.372
14.894
15.515
16.244
17.090
18.066
19.179
20.443
21.864
23.441
25.167
27.035
29.035
31.159
33.404
35.757
38.210
40.735
43.301
45.871
48.421
50.911
53.318
55.599
57.739
59.699
61.454
62.986
64.258
65.257
65.941
66.305
66.314
65.995
65.352
64.415
63.189
61.698
59.960
57.984
55.800
53.429
50.913
48.276
45.556
42.785
39.997
37.218
34.486
31.812
29.214
26.702
24.292
21.998
19.830
17.804
15.932
14.214
12.643
11.214
9.918
8.749
7.700
6.765
5.936
5.206
4.567
4.011
3.530
3.115
2.758
2.450
2.185
1.953
1.751
1.577
1.426
1.296
1.183
1.086
1.000
0.923
0.852
0.788
0.728
0.674
0.625
0.579
0.536
0.496
0.459
0.424
0.390
0.359
0.330
0.302
0.277
0.254
0.233
0.213
0.195
0.179
0.165
0.152
0.140
0.130
0.120
0.112
0.105
0.098
0.093
0.087
0.083
0.079
0.076
0.073
0.070
0.067
0.065
0.063
0.061
0.060
0.058
0.056
0.055
0.054
0.052
0.051
0.050
0.049
0.048
0.047
0.045
0.044
0.043
0.042
0.041
0.041
0.040
0.039
0.038
0.037
0.037
0.036
0.035
0.034
0.034
0.033
0.032
0.032
0.031
0.030
0.029
0.029
0.028
0.027
0.027
0.026
0.025
0.024
0.023
0.022
0.022
0.021
0.020
0.019
0.018
0.017
0.016
0.015
0.014
0.013
0.013
0.012
0.011
0.010
0.009
0.009
0.008
0.007
0.006
0.006
0.005
0.005
0.004
0.004
0.003
0.003
0.003
0.002
0.002
0.002
0.002
0.001
0.001
0.001
0.001
0.001
0.001
0.001
0.000
0.000
0.000
0.000
0.000
0.000
0.000
0.000
0.000
0.000
0.000
0.000
0.000
0.000
0.000
0.000
0.000
0.000
0.000
0.000
0.000
0.000
0.000
0.000
0.000
0.000
0.000
0.000
0.000
0.000
0.000
-0.000
-0.000
-0.000
-0.000
-0.000
-0.000
-0.000
-0.000
-0.000
-0.000
0.000
0.000
0.000
0.000
0.000
0.000
0.000
0.000
0.000
0.000
0.000
-0.000
-0.000
-0.000
-0.000
-0.000
-0.000
-0.000
-0.000
-0.000
-0.000
0.000
0.000
0.000
0.000
0.000
0.000
0
0
0
0
0
0
0
0
0
0
0
0
0
0
0
0
0
0
0
0
0
0
0
0
0
0
0
0
0
0
0
0
0
0
0
0
0
0
0
0
0
0
0
0
0
0
0
0
0
0
0
0
0
0
0
0
0
0
0
0
0
0
0
0
0
0
0
0
0
0
0
0
0
0
0
0
0
0
0
0
0
0
0
0
0
0
0
0
0
0
0
0
0
0
0
0
0
0
0
0
0
0
0
0
0
0
0
0
0
0
0
0
0
0
0
0
0
0
0
0
0
0
0
0
0
0
0
0
0
0
0
0
0
0
0
0
0
0
0
0
0
0
0
0
0
0
0
0
0
0
0
0
0
0
0
0
0
0
0
0
0
0
0
0
0
0
0
0
0
0
0
0
0
0
0
0
0
0
0
0
0
0
0
0
0
0
0
0
0
0
0
0
0
0
0
0
0
0
0
0
0
0
0
0
0
0
0
0
0
0
0
0
0
0
0
0
0
0
0
0
0
0
0
0
0
0
0
0
0
0
0
0
0
0
0
0
0
0
0
0
0
0
0
0
0
0
0
0
0
0
0
0
0
0
0
0
0
0
0
0
0
0
0
0
0
0
0
0
0
0
0
0
0
0
0
0
0
0
0
0
0
0
0
0
0
0
0
0
0
0
0
0
0
0
0
0
0
0
0
0
0
0
0
0
0
0
0
0
0
0
0
0
0
0
0
0
0
0
0
0
0
0
0
0
0
0
0
0
0
0
0
0
0
0
0
0
0
0
0
0
0
0
0
0
0
0
0
0
0
0
0
0
0
0
0
0
0
0
0
0
0
0
0
0
0
0
0
0
0
0
0
0
0
0
0
0
0
0
0
0
0
0
0
0
0
0
0
0
0
0
0
0
0
0
0
0
0
0
0
0
0
0
0
0
0
0
0
0
0
0
0
0
0
0
0
0
0
0
0
0
0
0
0
0
0
0
0
0
0
0
0
0
0
0
0
0
0
0
0
0
0
0
0
0
0
0
0
0
0
0
0
0
0
0
0
0
0
0
0
0
0
0
0
0
0
0
0
0
0
0
0
0
0
0
0
0
0
0
$MCA_CAL:
3
-1.4656616 2.9313233 0.00000000000000
$ENER_FIT:
-1.4656616 2.9313233 0.00000000000000
$MCA_CAL_DATA:
3
298 872
597 1749
896 2625
$CAMBIO:
Parent file specification: C:\GADRAS-DRF\Temp\152EU_75.0_50.0_alum_4.18_8.5.pcf
Successful read of spectrum: Yes
Error message: None
Warning: None
Information: None
Neutrons: 0
Number of spectral records in the parent file: 1
Record number of this spectrum in the parent file: 1
Date and time of acquisition read successfully from the original file: Yes
Live time read successfully from the original file: Yes
True time read successfully from the original file: Yes
GADRAS Tag character is:  
Version: 130122
Parent file type: Sandia GADRAS PCF
