$SPEC_ID:
152EU,1uC{26,3.50}
$MEAS_TIM:
3600.00 3600.00
$DATE_MEA:
3/9/2018 5:22:25 PM
$DATA:
0 1193
1173.540
1119.457
1020.872
1171.464
1017.531
887.331
775.721
684.286
610.860
546.504
509.390
477.265
447.300
425.456
410.960
400.479
392.139
388.362
391.145
398.264
417.786
444.125
467.188
481.844
499.485
528.268
565.936
596.799
625.249
676.646
750.768
823.963
877.201
903.294
926.849
960.885
1028.806
1183.776
1487.022
1979.103
2483.213
2662.816
2331.938
1707.066
1121.396
762.921
617.738
582.679
587.235
600.237
607.542
607.936
603.477
596.024
589.862
587.360
588.254
591.466
596.799
603.791
611.024
616.712
619.949
620.635
618.903
614.770
609.956
605.899
601.857
597.159
591.638
585.804
578.929
570.090
561.933
558.637
565.384
587.703
629.882
690.629
762.938
832.214
880.797
890.911
859.288
791.986
705.911
619.082
545.797
493.537
460.075
441.280
431.932
428.374
428.394
430.393
433.186
436.089
438.670
440.318
440.289
438.421
435.008
431.001
427.947
427.803
432.997
447.597
477.735
529.102
606.172
711.227
839.900
984.727
1127.091
1244.824
1319.121
1333.883
1284.529
1182.076
1040.954
882.026
726.616
588.090
475.716
392.660
334.129
294.848
269.781
254.088
244.712
240.127
239.057
240.954
245.359
251.563
258.695
265.810
271.812
275.607
276.904
276.125
273.816
270.861
268.271
266.764
266.599
267.937
270.074
271.744
271.753
269.533
264.668
257.073
247.416
236.448
225.017
214.051
204.463
196.634
190.591
186.298
183.487
181.766
180.742
180.108
179.564
178.870
177.951
176.799
175.406
173.833
172.148
170.415
168.722
167.143
165.735
164.491
163.380
162.404
161.614
161.094
160.917
161.003
161.239
161.512
161.789
162.080
162.390
162.679
162.830
162.743
162.340
161.614
160.542
159.132
157.435
155.528
153.471
151.309
149.108
146.903
144.736
142.633
140.630
138.746
137.014
135.476
134.153
133.039
132.091
131.281
130.569
129.977
129.531
129.242
129.111
129.123
129.272
129.545
129.949
130.492
131.191
132.029
132.973
134.009
135.095
136.168
137.151
137.981
138.589
138.945
139.018
138.788
138.249
137.429
136.370
135.083
133.614
131.995
130.270
128.482
126.736
125.160
123.864
122.951
122.479
122.509
123.087
124.317
126.374
129.439
133.691
139.209
145.953
153.861
162.873
172.761
183.120
193.512
203.514
212.649
220.413
226.255
229.669
230.421
228.601
224.338
217.778
209.176
199.028
187.845
176.151
164.403
152.971
142.205
132.458
124.014
116.909
111.126
106.635
103.402
101.303
100.182
99.871
100.210
101.050
102.264
103.717
105.268
106.792
108.127
109.125
109.627
109.511
108.759
107.408
105.498
103.060
100.179
96.973
93.593
90.144
86.772
83.587
80.716
78.267
76.369
75.098
74.499
74.633
75.540
77.268
79.802
83.144
87.272
92.182
97.788
103.963
110.552
117.423
124.403
131.247
137.671
143.365
148.058
151.499
153.610
154.297
153.511
151.168
147.347
142.244
136.094
129.127
121.550
113.610
105.526
97.540
89.870
82.740
76.229
70.386
65.240
60.843
57.218
54.348
52.212
50.776
50.019
49.915
50.476
51.702
53.609
56.198
59.483
63.448
68.106
73.437
79.437
86.086
93.270
100.897
108.835
117.005
125.246
133.392
141.216
148.540
155.135
160.835
165.532
169.116
171.525
172.641
172.421
170.868
168.082
164.131
159.100
153.049
146.142
138.527
130.406
121.930
113.292
104.641
96.083
87.749
79.742
72.192
65.181
58.748
52.910
47.687
43.093
39.148
35.802
32.985
30.624
28.648
26.982
25.570
24.389
23.407
22.604
21.949
21.423
20.992
20.630
20.306
19.992
19.660
19.292
18.894
18.461
18.001
17.513
17.001
16.473
15.941
15.416
14.909
14.430
13.989
13.593
13.245
12.952
12.719
12.551
12.444
12.393
12.387
12.422
12.487
12.575
12.674
12.771
12.855
12.912
12.930
12.900
12.825
12.711
12.564
12.386
12.186
11.975
11.776
11.616
11.521
11.515
11.625
11.880
12.313
12.961
13.856
15.033
16.526
18.357
20.532
23.060
25.951
29.210
32.845
36.827
41.097
45.589
50.248
55.005
59.806
64.554
69.161
73.504
77.478
80.986
83.909
86.193
87.796
88.719
88.914
88.378
87.073
85.031
82.321
79.041
75.277
71.108
66.633
61.929
57.088
52.184
47.307
42.537
37.959
33.643
29.619
25.891
22.472
19.366
16.584
14.134
12.001
10.161
8.585
7.247
6.118
5.172
4.385
3.738
3.213
2.792
2.458
2.192
1.978
1.805
1.669
1.560
1.473
1.401
1.338
1.278
1.221
1.165
1.111
1.057
1.003
0.948
0.891
0.834
0.777
0.720
0.664
0.609
0.555
0.503
0.454
0.407
0.364
0.324
0.288
0.255
0.227
0.202
0.180
0.162
0.145
0.132
0.120
0.111
0.103
0.096
0.091
0.086
0.083
0.080
0.077
0.075
0.073
0.072
0.070
0.069
0.068
0.067
0.066
0.065
0.064
0.063
0.062
0.061
0.059
0.058
0.057
0.056
0.054
0.053
0.052
0.050
0.049
0.047
0.046
0.044
0.043
0.042
0.041
0.039
0.038
0.037
0.037
0.036
0.035
0.035
0.034
0.034
0.034
0.034
0.033
0.033
0.033
0.033
0.032
0.032
0.032
0.031
0.031
0.030
0.029
0.028
0.027
0.026
0.025
0.023
0.022
0.021
0.019
0.018
0.016
0.015
0.014
0.012
0.011
0.010
0.009
0.008
0.007
0.006
0.005
0.004
0.004
0.003
0.003
0.002
0.002
0.002
0.001
0.001
0.001
0.001
0.001
0.000
0.000
0.000
0.000
0.000
0.000
0.000
0.000
0.000
0.000
0.000
0.000
0.000
0.000
0.000
0.000
0.000
0.000
0.000
0.000
0.000
0.000
0.000
-0.000
-0.000
-0.000
-0.000
-0.000
-0.000
-0.000
0.000
0.000
0.000
0.000
0.000
0.000
0.000
0.000
-0.000
-0.000
-0.000
-0.000
-0.000
-0.000
-0.000
-0.000
0.000
0.000
0.000
0.000
0
0
0
0
0
0
0
0
0
0
0
0
0
0
0
0
0
0
0
0
0
0
0
0
0
0
0
0
0
0
0
0
0
0
0
0
0
0
0
0
0
0
0
0
0
0
0
0
0
0
0
0
0
0
0
0
0
0
0
0
0
0
0
0
0
0
0
0
0
0
0
0
0
0
0
0
0
0
0
0
0
0
0
0
0
0
0
0
0
0
0
0
0
0
0
0
0
0
0
0
0
0
0
0
0
0
0
0
0
0
0
0
0
0
0
0
0
0
0
0
0
0
0
0
0
0
0
0
0
0
0
0
0
0
0
0
0
0
0
0
0
0
0
0
0
0
0
0
0
0
0
0
0
0
0
0
0
0
0
0
0
0
0
0
0
0
0
0
0
0
0
0
0
0
0
0
0
0
0
0
0
0
0
0
0
0
0
0
0
0
0
0
0
0
0
0
0
0
0
0
0
0
0
0
0
0
0
0
0
0
0
0
0
0
0
0
0
0
0
0
0
0
0
0
0
0
0
0
0
0
0
0
0
0
0
0
0
0
0
0
0
0
0
0
0
0
0
0
0
0
0
0
0
0
0
0
0
0
0
0
0
0
0
0
0
0
0
0
0
0
0
0
0
0
0
0
0
0
0
0
0
0
0
0
0
0
0
0
0
0
0
0
0
0
0
0
0
0
0
0
0
0
0
0
0
0
0
0
0
0
0
0
0
0
0
0
0
0
0
0
0
0
0
0
0
0
0
0
0
0
0
0
0
0
0
0
0
0
0
0
0
0
0
0
0
0
0
0
0
0
0
0
0
0
0
0
0
0
0
0
0
0
0
0
0
0
0
0
0
0
0
0
0
0
0
0
0
0
0
0
0
0
0
0
0
0
0
0
0
0
0
0
0
0
0
0
0
0
0
0
0
0
0
0
0
0
0
0
0
0
0
0
0
0
0
0
0
0
0
0
0
0
0
0
0
0
0
0
0
0
0
0
0
0
0
0
0
0
0
0
0
0
0
0
0
0
0
0
0
0
0
0
0
0
0
0
0
0
0
0
0
0
0
0
0
0
0
0
0
0
0
0
0
0
0
0
0
0
0
0
0
0
0
0
0
0
0
0
0
0
0
0
0
0
0
0
0
0
0
0
0
0
0
0
0
$MCA_CAL:
3
-1.4656616 2.9313233 0.00000000000000
$ENER_FIT:
-1.4656616 2.9313233 0.00000000000000
$MCA_CAL_DATA:
3
298 872
597 1749
896 2625
$CAMBIO:
Parent file specification: C:\GADRAS-DRF\Temp\152EU_150.0_50.0_iron_3.50_6.5.pcf
Successful read of spectrum: Yes
Error message: None
Warning: None
Information: None
Neutrons: 0
Number of spectral records in the parent file: 1
Record number of this spectrum in the parent file: 1
Date and time of acquisition read successfully from the original file: Yes
Live time read successfully from the original file: Yes
True time read successfully from the original file: Yes
GADRAS Tag character is:  
Version: 130122
Parent file type: Sandia GADRAS PCF
