$SPEC_ID:
152EU,1uC{26,11.02}
$MEAS_TIM:
3600.00 3600.00
$DATE_MEA:
3/9/2018 5:22:25 PM
$DATA:
0 1193
845.768
803.284
756.182
1352.731
1130.643
980.997
853.835
748.426
667.655
597.600
557.532
523.490
493.649
472.932
460.465
453.798
450.599
454.688
467.497
485.890
512.056
541.314
563.241
572.657
580.076
589.116
600.661
612.576
621.077
636.067
657.396
681.184
703.041
714.036
726.420
743.220
769.451
806.430
850.553
899.274
937.596
945.960
914.172
858.414
799.082
752.585
726.549
719.579
725.186
735.765
747.038
756.991
761.661
759.084
751.361
741.369
731.896
723.740
716.979
711.564
707.193
703.300
699.280
694.556
689.145
683.494
678.091
673.412
669.148
664.591
659.456
653.715
647.577
641.431
636.158
633.030
632.852
635.698
641.230
648.256
655.198
659.214
657.316
648.209
631.686
608.620
581.441
552.649
524.596
499.497
478.353
461.092
447.565
437.521
430.656
426.240
423.152
420.476
417.996
415.712
413.643
411.888
410.626
410.647
413.129
419.028
428.518
441.595
458.578
480.565
508.654
542.162
578.016
613.045
643.469
665.075
673.775
668.464
650.254
620.337
580.986
535.116
485.721
435.891
388.871
347.794
313.964
286.811
265.660
249.805
238.437
230.766
226.003
223.472
222.497
222.437
222.912
223.610
224.237
224.623
224.715
224.450
223.825
222.924
221.866
220.737
219.515
218.128
216.484
214.523
212.179
209.418
206.195
202.545
198.565
194.336
189.966
185.587
181.353
177.399
173.825
170.638
167.861
165.505
163.521
161.836
160.364
159.038
157.805
156.636
155.488
154.340
153.193
152.055
150.945
149.871
148.839
147.855
146.922
146.058
145.265
144.557
143.955
143.454
143.025
142.631
142.230
141.790
141.294
140.746
140.131
139.446
138.681
137.839
136.903
135.870
134.741
133.544
132.289
130.988
129.673
128.348
127.029
125.728
124.466
123.246
122.079
120.984
119.963
119.026
118.174
117.416
116.740
116.155
115.663
115.254
114.928
114.679
114.510
114.406
114.359
114.360
114.406
114.479
114.558
114.639
114.698
114.721
114.694
114.617
114.474
114.258
113.960
113.591
113.148
112.637
112.072
111.448
110.802
110.157
109.546
108.992
108.527
108.197
108.040
108.099
108.416
109.032
109.954
111.193
112.762
114.668
116.910
119.437
122.198
125.125
128.164
131.245
134.269
137.102
139.625
141.709
143.248
144.166
144.457
144.115
143.115
141.447
139.142
136.275
132.936
129.211
125.197
120.977
116.654
112.337
108.130
104.142
100.473
97.182
94.256
91.691
89.475
87.606
86.067
84.823
83.831
83.056
82.452
81.973
81.585
81.235
80.877
80.462
79.948
79.286
78.477
77.554
76.542
75.475
74.375
73.288
72.232
71.255
70.383
69.660
69.110
68.776
68.669
68.798
69.184
69.832
70.763
71.967
73.422
75.081
76.912
78.865
80.913
83.002
85.076
87.060
88.891
90.510
91.837
92.828
93.451
93.704
93.558
93.013
92.045
90.658
88.877
86.762
84.371
81.745
78.948
76.026
73.044
70.052
67.120
64.303
61.667
59.263
57.145
55.329
53.828
52.666
51.857
51.420
51.366
51.693
52.383
53.430
54.814
56.532
58.560
60.888
63.460
66.239
69.188
72.257
75.415
78.602
81.785
84.879
87.841
90.596
93.098
95.270
97.077
98.499
99.507
100.101
100.247
99.945
99.164
97.925
96.260
94.208
91.794
89.069
86.056
82.804
79.342
75.724
71.995
68.188
64.361
60.547
56.800
53.139
49.597
46.197
42.965
39.922
37.098
34.510
32.156
30.023
28.095
26.359
24.796
23.396
22.141
21.021
20.020
19.134
18.343
17.641
17.013
16.449
15.941
15.479
15.063
14.681
14.330
14.002
13.692
13.395
13.112
12.842
12.587
12.346
12.118
11.907
11.709
11.526
11.359
11.207
11.069
10.948
10.840
10.749
10.672
10.611
10.566
10.534
10.519
10.517
10.531
10.561
10.611
10.689
10.801
10.950
11.145
11.390
11.691
12.056
12.491
13.004
13.600
14.289
15.076
15.969
16.973
18.088
19.307
20.627
22.039
23.537
25.121
26.779
28.506
30.282
32.087
33.893
35.684
37.433
39.122
40.721
42.222
43.593
44.818
45.883
46.762
47.443
47.898
48.122
48.089
47.820
47.319
46.606
45.688
44.583
43.303
41.856
40.263
38.541
36.718
34.810
32.845
30.845
28.833
26.828
24.856
22.926
21.051
19.237
17.498
15.842
14.277
12.817
11.468
10.232
9.102
8.074
7.143
6.305
5.552
4.881
4.286
3.761
3.302
2.902
2.556
2.256
1.999
1.777
1.585
1.417
1.272
1.145
1.036
0.942
0.861
0.791
0.728
0.672
0.621
0.574
0.532
0.492
0.456
0.423
0.392
0.363
0.336
0.310
0.286
0.263
0.242
0.222
0.203
0.186
0.171
0.156
0.144
0.132
0.121
0.112
0.103
0.096
0.089
0.083
0.078
0.073
0.069
0.065
0.062
0.059
0.056
0.054
0.052
0.050
0.048
0.047
0.046
0.044
0.043
0.042
0.041
0.040
0.039
0.038
0.037
0.036
0.036
0.035
0.034
0.033
0.032
0.032
0.031
0.030
0.030
0.029
0.028
0.028
0.027
0.027
0.026
0.026
0.025
0.025
0.024
0.024
0.023
0.022
0.022
0.021
0.021
0.020
0.020
0.019
0.019
0.018
0.017
0.017
0.016
0.015
0.015
0.014
0.013
0.013
0.012
0.011
0.011
0.010
0.009
0.009
0.008
0.007
0.007
0.006
0.006
0.005
0.005
0.004
0.004
0.004
0.003
0.003
0.003
0.002
0.002
0.002
0.002
0.001
0.001
0.001
0.001
0.001
0.001
0.001
0.000
0.000
0.000
0.000
0.000
0.000
0.000
0.000
0.000
0.000
0.000
0.000
0.000
0.000
0.000
0.000
0.000
0.000
0.000
0.000
0.000
0.000
0.000
0.000
0.000
0.000
0.000
0.000
0.000
0.000
0.000
0.000
0.000
-0.000
-0.000
-0.000
-0.000
-0.000
-0.000
-0.000
-0.000
-0.000
-0.000
0.000
0.000
0.000
0.000
0.000
0.000
0.000
0.000
0.000
0.000
0.000
-0.000
-0.000
-0.000
-0.000
-0.000
-0.000
-0.000
-0.000
-0.000
-0.000
0.000
0.000
0.000
0.000
0.000
0.000
0
0
0
0
0
0
0
0
0
0
0
0
0
0
0
0
0
0
0
0
0
0
0
0
0
0
0
0
0
0
0
0
0
0
0
0
0
0
0
0
0
0
0
0
0
0
0
0
0
0
0
0
0
0
0
0
0
0
0
0
0
0
0
0
0
0
0
0
0
0
0
0
0
0
0
0
0
0
0
0
0
0
0
0
0
0
0
0
0
0
0
0
0
0
0
0
0
0
0
0
0
0
0
0
0
0
0
0
0
0
0
0
0
0
0
0
0
0
0
0
0
0
0
0
0
0
0
0
0
0
0
0
0
0
0
0
0
0
0
0
0
0
0
0
0
0
0
0
0
0
0
0
0
0
0
0
0
0
0
0
0
0
0
0
0
0
0
0
0
0
0
0
0
0
0
0
0
0
0
0
0
0
0
0
0
0
0
0
0
0
0
0
0
0
0
0
0
0
0
0
0
0
0
0
0
0
0
0
0
0
0
0
0
0
0
0
0
0
0
0
0
0
0
0
0
0
0
0
0
0
0
0
0
0
0
0
0
0
0
0
0
0
0
0
0
0
0
0
0
0
0
0
0
0
0
0
0
0
0
0
0
0
0
0
0
0
0
0
0
0
0
0
0
0
0
0
0
0
0
0
0
0
0
0
0
0
0
0
0
0
0
0
0
0
0
0
0
0
0
0
0
0
0
0
0
0
0
0
0
0
0
0
0
0
0
0
0
0
0
0
0
0
0
0
0
0
0
0
0
0
0
0
0
0
0
0
0
0
0
0
0
0
0
0
0
0
0
0
0
0
0
0
0
0
0
0
0
0
0
0
0
0
0
0
0
0
0
0
0
0
0
0
0
0
0
0
0
0
0
0
0
0
0
0
0
0
0
0
0
0
0
0
0
0
0
0
0
0
0
0
0
0
0
0
0
0
0
0
0
0
0
0
0
0
0
0
0
0
0
0
0
0
0
0
0
0
0
0
0
0
0
0
0
0
0
0
0
0
0
0
0
0
0
0
0
0
0
0
0
0
0
0
0
0
0
0
0
0
0
0
0
0
0
0
0
0
0
0
0
0
0
0
0
0
0
0
0
0
$MCA_CAL:
3
-1.4656616 2.9313233 0.00000000000000
$ENER_FIT:
-1.4656616 2.9313233 0.00000000000000
$MCA_CAL_DATA:
3
298 872
597 1749
896 2625
$CAMBIO:
Parent file specification: C:\GADRAS-DRF\Temp\152EU_50.0_50.0_iron_11.02_8.5.pcf
Successful read of spectrum: Yes
Error message: None
Warning: None
Information: None
Neutrons: 0
Number of spectral records in the parent file: 1
Record number of this spectrum in the parent file: 1
Date and time of acquisition read successfully from the original file: Yes
Live time read successfully from the original file: Yes
True time read successfully from the original file: Yes
GADRAS Tag character is:  
Version: 130122
Parent file type: Sandia GADRAS PCF
