$SPEC_ID:
152EU,1uC{13,4.18}
$MEAS_TIM:
3600.00 3600.00
$DATE_MEA:
3/9/2018 5:22:25 PM
$DATA:
0 1193
1121.286
1118.042
1165.918
1626.916
1434.525
1112.216
918.439
735.524
669.471
636.845
781.104
1381.931
2763.294
3731.777
3063.798
2005.504
1228.381
788.814
666.814
698.424
759.906
826.325
886.566
936.106
990.165
1049.279
1103.361
1151.692
1207.364
1262.657
1319.759
1380.025
1423.230
1445.056
1467.848
1520.047
1642.170
1873.057
2221.816
2637.983
2979.784
3036.693
2741.737
2202.556
1621.612
1173.038
898.035
765.388
719.517
709.372
706.546
705.129
701.428
694.702
687.553
682.205
679.769
679.457
680.581
682.712
684.725
685.576
685.077
683.158
679.758
675.117
669.707
663.848
657.705
651.373
644.868
637.890
630.442
624.180
621.452
625.489
639.251
663.195
696.618
736.155
777.152
811.942
831.796
831.898
810.375
769.470
716.181
657.765
601.515
553.748
516.172
488.969
471.094
460.609
455.527
453.849
453.686
454.100
454.479
454.500
454.130
453.501
453.438
454.966
459.636
469.653
487.315
515.171
555.842
610.894
679.115
758.814
845.324
931.086
1008.223
1068.307
1102.508
1104.063
1074.302
1016.545
935.695
839.941
738.045
637.646
544.706
464.897
400.865
351.263
314.436
288.527
271.371
260.830
255.156
253.167
253.698
255.776
258.736
261.919
264.805
267.124
268.649
269.239
269.113
268.538
267.776
266.906
265.956
264.948
263.715
261.973
259.403
255.829
251.253
245.696
239.234
232.120
224.700
217.301
210.221
203.691
197.959
193.192
189.328
186.228
183.746
181.752
180.104
178.673
177.328
176.016
174.693
173.334
171.921
170.486
169.082
167.750
166.513
165.377
164.344
163.428
162.640
162.007
161.566
161.322
161.227
161.203
161.173
161.073
160.884
160.611
160.240
159.765
159.148
158.363
157.363
156.130
154.695
153.113
151.422
149.654
147.852
146.022
144.189
142.371
140.606
138.919
137.341
135.912
134.628
133.485
132.471
131.590
130.825
130.197
129.722
129.404
129.250
129.240
129.360
129.583
129.893
130.275
130.729
131.243
131.800
132.394
132.974
133.501
133.931
134.235
134.395
134.413
134.288
134.027
133.622
133.077
132.404
131.590
130.652
129.637
128.631
127.703
126.932
126.400
126.166
126.296
126.853
127.908
129.506
131.682
134.468
137.892
141.984
146.698
151.933
157.563
163.478
169.553
175.612
181.402
186.690
191.230
194.810
197.279
198.588
198.687
197.500
194.981
191.237
186.431
180.746
174.357
167.455
160.224
152.875
145.615
138.652
132.189
126.339
121.138
116.602
112.758
109.628
107.201
105.382
104.082
103.204
102.661
102.358
102.202
102.120
102.020
101.818
101.432
100.839
100.030
99.006
97.770
96.317
94.674
92.897
91.076
89.257
87.526
85.943
84.582
83.496
82.762
82.439
82.588
83.253
84.414
86.064
88.174
90.739
93.730
97.091
100.718
104.533
108.435
112.343
116.148
119.740
123.005
125.807
128.041
129.575
130.348
130.351
129.618
128.154
125.990
123.128
119.637
115.632
111.204
106.480
101.558
96.556
91.562
86.685
82.007
77.634
73.646
70.147
67.180
64.759
62.909
61.640
60.974
60.921
61.485
62.639
64.374
66.662
69.496
72.842
76.681
80.937
85.552
90.474
95.630
100.975
106.410
111.864
117.200
122.334
127.142
131.540
135.410
138.710
141.392
143.386
144.666
145.157
144.840
143.711
141.840
139.277
136.082
132.290
127.980
123.191
118.016
112.509
106.757
100.833
94.799
88.742
82.718
76.810
71.072
65.583
60.408
55.617
51.239
47.264
43.661
40.407
37.480
34.854
32.508
30.415
28.561
26.923
25.486
24.224
23.127
22.167
21.332
20.601
19.956
19.381
18.855
18.364
17.892
17.439
17.002
16.584
16.181
15.796
15.426
15.074
14.739
14.424
14.132
13.862
13.617
13.400
13.210
13.045
12.904
12.783
12.683
12.599
12.532
12.479
12.440
12.416
12.405
12.409
12.427
12.459
12.510
12.589
12.708
12.878
13.111
13.416
13.807
14.295
14.894
15.617
16.479
17.492
18.672
20.032
21.584
23.326
25.250
27.346
29.607
32.027
34.594
37.302
40.127
43.031
45.969
48.909
51.804
54.622
57.314
59.857
62.200
64.310
66.161
67.704
68.916
69.748
70.185
70.204
69.838
69.092
67.998
66.561
64.809
62.760
60.429
57.864
55.097
52.180
49.145
46.040
42.905
39.783
36.702
33.688
30.756
27.931
25.227
22.669
20.275
18.061
16.035
14.185
12.506
10.989
9.626
8.410
7.333
6.387
5.561
4.845
4.229
3.700
3.249
2.865
2.537
2.254
2.012
1.805
1.629
1.480
1.353
1.245
1.149
1.064
0.986
0.916
0.852
0.793
0.739
0.688
0.640
0.595
0.551
0.509
0.469
0.431
0.396
0.362
0.331
0.303
0.276
0.252
0.230
0.210
0.192
0.175
0.161
0.148
0.136
0.125
0.116
0.108
0.101
0.095
0.089
0.085
0.081
0.077
0.074
0.071
0.069
0.067
0.065
0.063
0.062
0.060
0.059
0.057
0.056
0.055
0.053
0.052
0.051
0.050
0.049
0.047
0.046
0.045
0.044
0.043
0.042
0.041
0.040
0.039
0.039
0.038
0.037
0.036
0.035
0.035
0.034
0.033
0.033
0.032
0.032
0.031
0.030
0.030
0.029
0.028
0.028
0.027
0.026
0.025
0.025
0.024
0.023
0.022
0.021
0.020
0.019
0.018
0.017
0.016
0.015
0.014
0.013
0.012
0.011
0.010
0.010
0.009
0.008
0.007
0.007
0.006
0.005
0.005
0.004
0.004
0.003
0.003
0.002
0.002
0.002
0.002
0.001
0.001
0.001
0.001
0.001
0.001
0.001
0.000
0.000
0.000
0.000
0.000
0.000
0.000
0.000
0.000
0.000
0.000
0.000
0.000
0.000
0.000
0.000
0.000
0.000
0.000
0.000
0.000
0.000
0.000
0.000
0.000
0.000
0.000
0.000
0.000
-0.000
-0.000
-0.000
-0.000
-0.000
-0.000
-0.000
-0.000
-0.000
0.000
0.000
0.000
0.000
0.000
0.000
0.000
0.000
0.000
0.000
0.000
0.000
0.000
0.000
0.000
0.000
0
0
0
0
0
0
0
0
0
0
0
0
0
0
0
0
0
0
0
0
0
0
0
0
0
0
0
0
0
0
0
0
0
0
0
0
0
0
0
0
0
0
0
0
0
0
0
0
0
0
0
0
0
0
0
0
0
0
0
0
0
0
0
0
0
0
0
0
0
0
0
0
0
0
0
0
0
0
0
0
0
0
0
0
0
0
0
0
0
0
0
0
0
0
0
0
0
0
0
0
0
0
0
0
0
0
0
0
0
0
0
0
0
0
0
0
0
0
0
0
0
0
0
0
0
0
0
0
0
0
0
0
0
0
0
0
0
0
0
0
0
0
0
0
0
0
0
0
0
0
0
0
0
0
0
0
0
0
0
0
0
0
0
0
0
0
0
0
0
0
0
0
0
0
0
0
0
0
0
0
0
0
0
0
0
0
0
0
0
0
0
0
0
0
0
0
0
0
0
0
0
0
0
0
0
0
0
0
0
0
0
0
0
0
0
0
0
0
0
0
0
0
0
0
0
0
0
0
0
0
0
0
0
0
0
0
0
0
0
0
0
0
0
0
0
0
0
0
0
0
0
0
0
0
0
0
0
0
0
0
0
0
0
0
0
0
0
0
0
0
0
0
0
0
0
0
0
0
0
0
0
0
0
0
0
0
0
0
0
0
0
0
0
0
0
0
0
0
0
0
0
0
0
0
0
0
0
0
0
0
0
0
0
0
0
0
0
0
0
0
0
0
0
0
0
0
0
0
0
0
0
0
0
0
0
0
0
0
0
0
0
0
0
0
0
0
0
0
0
0
0
0
0
0
0
0
0
0
0
0
0
0
0
0
0
0
0
0
0
0
0
0
0
0
0
0
0
0
0
0
0
0
0
0
0
0
0
0
0
0
0
0
0
0
0
0
0
0
0
0
0
0
0
0
0
0
0
0
0
0
0
0
0
0
0
0
0
0
0
0
0
0
0
0
0
0
0
0
0
0
0
0
0
0
0
0
0
0
0
0
0
0
0
0
0
0
0
0
0
0
0
0
0
0
0
0
0
0
0
0
0
0
0
0
0
0
0
0
0
0
0
0
0
0
0
0
0
0
0
0
0
0
0
0
0
0
0
0
0
0
0
0
0
0
$MCA_CAL:
3
-1.4656616 2.9313233 0.00000000000000
$ENER_FIT:
-1.4656616 2.9313233 0.00000000000000
$MCA_CAL_DATA:
3
298 872
597 1749
896 2625
$CAMBIO:
Parent file specification: C:\GADRAS-DRF\Temp\152EU_150.0_50.0_alum_4.18_8.0.pcf
Successful read of spectrum: Yes
Error message: None
Warning: None
Information: None
Neutrons: 0
Number of spectral records in the parent file: 1
Record number of this spectrum in the parent file: 1
Date and time of acquisition read successfully from the original file: Yes
Live time read successfully from the original file: Yes
True time read successfully from the original file: Yes
GADRAS Tag character is:  
Version: 130122
Parent file type: Sandia GADRAS PCF
