$SPEC_ID:
152EU,1uC{26,3.50}
$MEAS_TIM:
3600.00 3600.00
$DATE_MEA:
3/9/2018 5:22:25 PM
$DATA:
0 1193
1204.419
1154.263
1060.004
1235.402
1056.565
920.080
803.002
707.479
631.427
565.323
526.145
492.360
460.982
439.572
425.806
415.905
407.854
404.296
408.118
417.804
439.365
467.217
492.828
508.881
529.358
559.870
598.530
629.968
658.498
705.538
773.161
842.236
896.569
924.145
950.838
991.336
1074.693
1252.459
1557.843
1997.752
2417.157
2542.867
2267.678
1735.861
1197.609
843.115
671.293
615.180
612.371
623.413
630.388
631.478
627.456
619.009
611.216
606.881
606.334
608.531
613.021
619.124
625.501
630.590
633.536
634.421
633.077
629.762
625.723
621.661
617.575
612.658
606.668
600.374
593.298
584.720
577.610
576.347
585.935
610.096
650.416
704.383
765.446
821.581
858.214
865.306
837.140
780.655
707.513
631.034
563.491
510.232
473.635
451.044
438.524
432.954
431.597
432.608
434.535
436.629
438.463
439.564
439.371
437.807
435.426
433.102
432.469
435.519
445.638
466.682
503.070
559.603
638.512
738.262
855.247
979.100
1097.388
1194.804
1253.696
1262.128
1221.756
1136.864
1019.018
883.693
745.441
616.451
507.943
422.857
358.978
313.645
283.084
263.383
251.538
245.535
243.503
244.459
247.745
252.649
258.336
263.935
268.733
272.192
273.843
273.819
272.688
271.000
269.318
268.181
267.962
268.336
268.782
268.776
267.684
264.892
260.017
253.259
244.921
235.418
225.466
215.800
207.031
199.430
193.245
188.574
185.204
182.867
181.284
180.198
179.336
178.469
177.501
176.397
175.113
173.682
172.156
170.588
169.040
167.558
166.188
164.969
163.910
163.030
162.332
161.833
161.566
161.540
161.708
161.970
162.222
162.392
162.477
162.501
162.458
162.290
161.896
161.189
160.112
158.723
157.085
155.272
153.327
151.279
149.186
147.073
144.977
142.927
140.966
139.117
137.407
135.876
134.538
133.384
132.386
131.527
130.776
130.155
129.691
129.396
129.280
129.322
129.510
129.818
130.240
130.775
131.434
132.212
133.075
133.997
134.925
135.816
136.618
137.288
137.764
138.002
137.991
137.752
137.287
136.608
135.733
134.648
133.368
131.897
130.318
128.736
127.263
126.019
125.082
124.527
124.420
124.840
125.867
127.613
130.185
133.695
138.203
143.680
150.096
157.405
165.521
174.157
182.991
191.679
199.888
207.252
213.414
217.969
220.558
221.003
219.384
215.816
210.428
203.361
194.948
185.571
175.621
165.469
155.442
145.807
136.831
128.776
121.855
116.088
111.423
107.823
105.241
103.593
102.723
102.481
102.713
103.277
104.051
104.920
105.790
106.544
107.082
107.316
107.165
106.537
105.349
103.618
101.440
98.931
96.190
93.348
90.484
87.711
85.116
82.806
80.861
79.376
78.420
78.065
78.396
79.464
81.271
83.784
86.996
90.877
95.392
100.418
105.844
111.536
117.384
123.225
128.858
134.071
138.627
142.327
144.977
146.538
146.950
146.200
144.236
141.076
136.844
131.722
125.893
119.511
112.768
105.822
98.856
92.026
85.515
79.479
74.006
69.121
64.870
61.281
58.386
56.207
54.733
53.962
53.882
54.493
55.780
57.744
60.366
63.650
67.572
72.141
77.294
82.977
89.142
95.717
102.659
109.848
117.165
124.424
131.497
138.208
144.432
150.023
154.885
158.907
161.955
163.942
164.789
164.543
163.202
160.812
157.393
152.986
147.682
141.644
134.989
127.880
120.434
112.796
105.074
97.357
89.765
82.387
75.339
68.680
62.456
56.701
51.454
46.745
42.612
39.026
35.930
33.272
30.994
29.042
27.359
25.919
24.690
23.651
22.772
22.032
21.400
20.859
20.384
19.952
19.546
19.139
18.720
18.284
17.838
17.382
16.922
16.458
15.996
15.542
15.103
14.685
14.295
13.941
13.626
13.353
13.123
12.936
12.790
12.689
12.629
12.605
12.605
12.622
12.648
12.670
12.683
12.682
12.667
12.635
12.589
12.525
12.445
12.355
12.276
12.222
12.212
12.265
12.396
12.627
12.985
13.497
14.191
15.095
16.234
17.636
19.311
21.265
23.503
26.030
28.855
31.978
35.383
39.022
42.847
46.805
50.856
54.943
59.021
63.003
66.829
70.402
73.646
76.490
78.842
80.668
81.938
82.662
82.803
82.366
81.325
79.690
77.494
74.814
71.718
68.262
64.527
60.568
56.460
52.255
48.018
43.809
39.688
35.710
31.942
28.410
25.123
22.082
19.293
16.758
14.480
12.463
10.693
9.153
7.822
6.680
5.707
4.884
4.191
3.614
3.137
2.748
2.432
2.177
1.969
1.794
1.648
1.525
1.422
1.334
1.257
1.189
1.124
1.061
1.001
0.943
0.887
0.832
0.778
0.725
0.673
0.622
0.572
0.525
0.479
0.436
0.395
0.357
0.322
0.290
0.260
0.233
0.209
0.188
0.170
0.153
0.140
0.128
0.117
0.109
0.101
0.095
0.090
0.086
0.082
0.079
0.076
0.074
0.072
0.070
0.069
0.067
0.066
0.065
0.064
0.063
0.061
0.060
0.059
0.058
0.056
0.055
0.054
0.053
0.051
0.050
0.049
0.047
0.046
0.045
0.044
0.043
0.041
0.040
0.039
0.039
0.038
0.037
0.036
0.036
0.035
0.035
0.034
0.034
0.033
0.033
0.033
0.032
0.032
0.031
0.031
0.030
0.029
0.029
0.028
0.027
0.026
0.025
0.024
0.023
0.021
0.020
0.019
0.018
0.017
0.015
0.014
0.013
0.012
0.011
0.010
0.009
0.008
0.007
0.006
0.005
0.005
0.004
0.003
0.003
0.002
0.002
0.002
0.002
0.001
0.001
0.001
0.001
0.001
0.000
0.000
0.000
0.000
0.000
0.000
0.000
0.000
0.000
0.000
0.000
0.000
0.000
0.000
0.000
0.000
0.000
0.000
0.000
0.000
-0.000
-0.000
-0.000
-0.000
-0.000
-0.000
-0.000
-0.000
0.000
0.000
0.000
0.000
0.000
0.000
0.000
0.000
-0.000
-0.000
-0.000
-0.000
-0.000
-0.000
-0.000
-0.000
-0.000
0.000
0.000
0.000
0.000
0.000
0
0
0
0
0
0
0
0
0
0
0
0
0
0
0
0
0
0
0
0
0
0
0
0
0
0
0
0
0
0
0
0
0
0
0
0
0
0
0
0
0
0
0
0
0
0
0
0
0
0
0
0
0
0
0
0
0
0
0
0
0
0
0
0
0
0
0
0
0
0
0
0
0
0
0
0
0
0
0
0
0
0
0
0
0
0
0
0
0
0
0
0
0
0
0
0
0
0
0
0
0
0
0
0
0
0
0
0
0
0
0
0
0
0
0
0
0
0
0
0
0
0
0
0
0
0
0
0
0
0
0
0
0
0
0
0
0
0
0
0
0
0
0
0
0
0
0
0
0
0
0
0
0
0
0
0
0
0
0
0
0
0
0
0
0
0
0
0
0
0
0
0
0
0
0
0
0
0
0
0
0
0
0
0
0
0
0
0
0
0
0
0
0
0
0
0
0
0
0
0
0
0
0
0
0
0
0
0
0
0
0
0
0
0
0
0
0
0
0
0
0
0
0
0
0
0
0
0
0
0
0
0
0
0
0
0
0
0
0
0
0
0
0
0
0
0
0
0
0
0
0
0
0
0
0
0
0
0
0
0
0
0
0
0
0
0
0
0
0
0
0
0
0
0
0
0
0
0
0
0
0
0
0
0
0
0
0
0
0
0
0
0
0
0
0
0
0
0
0
0
0
0
0
0
0
0
0
0
0
0
0
0
0
0
0
0
0
0
0
0
0
0
0
0
0
0
0
0
0
0
0
0
0
0
0
0
0
0
0
0
0
0
0
0
0
0
0
0
0
0
0
0
0
0
0
0
0
0
0
0
0
0
0
0
0
0
0
0
0
0
0
0
0
0
0
0
0
0
0
0
0
0
0
0
0
0
0
0
0
0
0
0
0
0
0
0
0
0
0
0
0
0
0
0
0
0
0
0
0
0
0
0
0
0
0
0
0
0
0
0
0
0
0
0
0
0
0
0
0
0
0
0
0
0
0
0
0
0
0
0
0
0
0
0
0
0
0
0
0
0
0
0
0
0
0
0
0
0
0
0
0
0
0
0
0
0
0
0
0
0
0
0
0
0
0
0
0
0
0
0
0
0
0
0
0
0
0
0
0
0
0
0
0
0
0
0
0
0
0
0
0
0
0
$MCA_CAL:
3
-1.4656616 2.9313233 0.00000000000000
$ENER_FIT:
-1.4656616 2.9313233 0.00000000000000
$MCA_CAL_DATA:
3
298 872
597 1749
896 2625
$CAMBIO:
Parent file specification: C:\GADRAS-DRF\Temp\152EU_125.0_50.0_iron_3.50_7.0.pcf
Successful read of spectrum: Yes
Error message: None
Warning: None
Information: None
Neutrons: 0
Number of spectral records in the parent file: 1
Record number of this spectrum in the parent file: 1
Date and time of acquisition read successfully from the original file: Yes
Live time read successfully from the original file: Yes
True time read successfully from the original file: Yes
GADRAS Tag character is:  
Version: 130122
Parent file type: Sandia GADRAS PCF
