$SPEC_ID:
152EU,1uC{26,1.53}
$MEAS_TIM:
3600.00 3600.00
$DATE_MEA:
3/9/2018 5:22:25 PM
$DATA:
0 1193
1391.802
1344.028
1234.725
1249.990
1088.620
952.875
825.952
717.839
640.044
572.543
536.074
522.343
567.250
633.227
623.834
593.796
497.539
423.339
409.069
414.802
432.928
459.147
482.462
499.376
522.904
562.894
609.202
641.821
671.002
731.684
822.274
911.708
970.140
996.191
1018.894
1058.717
1152.728
1389.246
1887.249
2691.238
3514.400
3822.635
3323.890
2340.604
1409.299
835.818
598.231
535.276
535.334
549.187
556.877
556.129
549.720
540.699
534.127
532.163
534.272
539.274
546.884
556.457
566.246
574.069
578.760
580.191
578.591
574.096
568.814
564.482
560.268
555.425
549.724
543.595
536.521
527.971
520.814
519.792
531.206
561.888
617.342
696.855
791.959
883.402
948.664
965.601
929.629
847.826
741.939
635.005
544.528
479.812
438.683
416.225
405.683
402.211
402.770
405.473
409.216
413.221
416.845
419.299
419.702
417.868
414.149
409.663
406.215
406.377
413.523
432.644
470.735
534.480
629.603
759.155
917.961
1097.008
1273.621
1420.750
1515.515
1538.352
1483.412
1363.421
1195.472
1005.306
819.306
653.619
519.113
419.546
349.394
302.513
272.817
254.396
243.537
238.405
237.480
240.107
245.743
253.538
262.434
271.303
278.874
283.887
285.974
285.571
283.273
280.167
277.518
276.202
276.486
278.511
281.454
283.857
284.344
282.212
276.928
268.363
257.323
244.711
231.538
218.896
207.856
198.870
191.982
187.161
184.086
182.290
181.307
180.777
180.354
179.757
178.899
177.763
176.336
174.694
172.918
171.088
169.302
167.650
166.197
164.935
163.828
162.874
162.136
161.711
161.681
161.960
162.414
162.915
163.424
163.952
164.502
165.027
165.398
165.497
165.236
164.599
163.555
162.106
160.315
158.269
156.041
153.684
151.274
148.855
146.476
144.169
141.975
139.919
138.038
136.379
134.967
133.793
132.812
131.990
131.283
130.716
130.317
130.098
130.061
130.189
130.475
130.903
131.483
132.224
133.144
134.226
135.432
136.747
138.123
139.486
140.746
141.824
142.642
143.165
143.360
143.202
142.688
141.849
140.732
139.353
137.764
136.003
134.120
132.166
130.261
128.550
127.157
126.203
125.755
125.888
126.660
128.190
130.672
134.311
139.306
145.743
153.578
162.736
173.149
184.561
196.515
208.520
220.101
230.713
239.775
246.649
250.752
251.809
249.922
245.237
237.917
228.253
216.816
204.194
190.987
177.719
164.807
152.647
141.636
132.094
124.065
117.534
112.471
108.843
106.508
105.287
104.987
105.425
106.432
107.863
109.565
111.379
113.163
114.736
115.928
116.565
116.504
115.727
114.272
112.182
109.490
106.293
102.724
98.952
95.104
91.340
87.786
84.585
81.858
79.749
78.344
77.697
77.874
78.924
80.900
83.789
87.592
92.289
97.876
104.257
111.284
118.780
126.591
134.522
142.297
149.599
156.081
161.440
165.395
167.857
168.717
167.918
165.363
161.139
155.468
148.613
140.834
132.364
123.481
114.431
105.487
96.893
88.902
81.603
75.052
69.284
64.358
60.302
57.094
54.710
53.114
52.277
52.173
52.813
54.198
56.348
59.263
62.959
67.420
72.660
78.657
85.408
92.890
100.977
109.561
118.496
127.691
136.966
146.134
154.944
163.194
170.631
177.067
182.383
186.455
189.211
190.522
190.336
188.660
185.605
181.249
175.686
168.987
161.331
152.886
143.871
134.458
124.856
115.235
105.712
96.437
87.523
79.118
71.315
64.157
57.662
51.853
46.744
42.357
38.639
35.508
32.887
30.693
28.847
27.284
25.977
24.894
24.009
23.290
22.714
22.242
21.848
21.497
21.156
20.796
20.396
19.962
19.491
18.988
18.453
17.892
17.312
16.728
16.151
15.594
15.068
14.583
14.149
13.768
13.448
13.195
13.013
12.900
12.848
12.848
12.891
12.969
13.071
13.187
13.301
13.400
13.468
13.494
13.467
13.390
13.270
13.112
12.921
12.705
12.475
12.259
12.086
11.983
11.980
12.103
12.386
12.866
13.584
14.574
15.877
17.531
19.558
21.967
24.766
27.968
31.578
35.604
40.014
44.743
49.716
54.875
60.141
65.456
70.711
75.811
80.620
85.022
88.911
92.156
94.697
96.487
97.528
97.767
97.198
95.782
93.552
90.585
86.987
82.855
78.276
73.358
68.185
62.861
57.466
52.098
46.848
41.808
37.055
32.622
28.515
24.747
21.324
18.259
15.559
13.210
11.184
9.448
7.975
6.732
5.691
4.824
4.111
3.532
3.068
2.699
2.405
2.169
1.980
1.829
1.710
1.615
1.536
1.466
1.401
1.338
1.277
1.218
1.159
1.100
1.039
0.977
0.915
0.852
0.790
0.728
0.667
0.608
0.552
0.497
0.446
0.398
0.354
0.315
0.280
0.248
0.221
0.197
0.177
0.159
0.144
0.131
0.121
0.112
0.105
0.099
0.094
0.090
0.087
0.084
0.082
0.080
0.078
0.077
0.075
0.074
0.073
0.072
0.071
0.070
0.068
0.067
0.066
0.065
0.063
0.062
0.061
0.059
0.058
0.056
0.055
0.053
0.051
0.050
0.048
0.047
0.046
0.044
0.043
0.042
0.041
0.040
0.039
0.038
0.038
0.037
0.037
0.037
0.037
0.036
0.036
0.036
0.036
0.035
0.035
0.035
0.034
0.033
0.032
0.032
0.031
0.029
0.028
0.027
0.025
0.024
0.022
0.021
0.019
0.018
0.016
0.015
0.013
0.012
0.011
0.010
0.008
0.007
0.006
0.006
0.005
0.004
0.003
0.003
0.002
0.002
0.002
0.001
0.001
0.001
0.001
0.001
0.000
0.000
0.000
0.000
0.000
0.000
0.000
0.000
0.000
0.000
0.000
0.000
0.000
0.000
0.000
0.000
0.000
0.000
0.000
0.000
0.000
0.000
0.000
-0.000
-0.000
-0.000
-0.000
-0.000
-0.000
-0.000
0.000
0.000
0.000
0.000
0.000
0.000
0.000
0.000
-0.000
-0.000
-0.000
-0.000
-0.000
-0.000
-0.000
-0.000
0.000
0.000
0.000
0.000
0
0
0
0
0
0
0
0
0
0
0
0
0
0
0
0
0
0
0
0
0
0
0
0
0
0
0
0
0
0
0
0
0
0
0
0
0
0
0
0
0
0
0
0
0
0
0
0
0
0
0
0
0
0
0
0
0
0
0
0
0
0
0
0
0
0
0
0
0
0
0
0
0
0
0
0
0
0
0
0
0
0
0
0
0
0
0
0
0
0
0
0
0
0
0
0
0
0
0
0
0
0
0
0
0
0
0
0
0
0
0
0
0
0
0
0
0
0
0
0
0
0
0
0
0
0
0
0
0
0
0
0
0
0
0
0
0
0
0
0
0
0
0
0
0
0
0
0
0
0
0
0
0
0
0
0
0
0
0
0
0
0
0
0
0
0
0
0
0
0
0
0
0
0
0
0
0
0
0
0
0
0
0
0
0
0
0
0
0
0
0
0
0
0
0
0
0
0
0
0
0
0
0
0
0
0
0
0
0
0
0
0
0
0
0
0
0
0
0
0
0
0
0
0
0
0
0
0
0
0
0
0
0
0
0
0
0
0
0
0
0
0
0
0
0
0
0
0
0
0
0
0
0
0
0
0
0
0
0
0
0
0
0
0
0
0
0
0
0
0
0
0
0
0
0
0
0
0
0
0
0
0
0
0
0
0
0
0
0
0
0
0
0
0
0
0
0
0
0
0
0
0
0
0
0
0
0
0
0
0
0
0
0
0
0
0
0
0
0
0
0
0
0
0
0
0
0
0
0
0
0
0
0
0
0
0
0
0
0
0
0
0
0
0
0
0
0
0
0
0
0
0
0
0
0
0
0
0
0
0
0
0
0
0
0
0
0
0
0
0
0
0
0
0
0
0
0
0
0
0
0
0
0
0
0
0
0
0
0
0
0
0
0
0
0
0
0
0
0
0
0
0
0
0
0
0
0
0
0
0
0
0
0
0
0
0
0
0
0
0
0
0
0
0
0
0
0
0
0
0
0
0
0
0
0
0
0
0
0
0
0
0
0
0
0
0
0
0
0
0
0
0
0
0
0
0
0
0
0
0
0
0
0
0
0
0
0
0
0
0
0
0
0
0
0
0
0
0
0
0
0
0
0
0
0
0
0
0
0
0
0
0
0
0
0
0
0
0
0
0
0
0
0
0
0
$MCA_CAL:
3
-1.4656616 2.9313233 0.00000000000000
$ENER_FIT:
-1.4656616 2.9313233 0.00000000000000
$MCA_CAL_DATA:
3
298 872
597 1749
896 2625
$CAMBIO:
Parent file specification: C:\GADRAS-DRF\Temp\152EU_150.0_50.0_iron_1.53_6.5.pcf
Successful read of spectrum: Yes
Error message: None
Warning: None
Information: None
Neutrons: 0
Number of spectral records in the parent file: 1
Record number of this spectrum in the parent file: 1
Date and time of acquisition read successfully from the original file: Yes
Live time read successfully from the original file: Yes
True time read successfully from the original file: Yes
GADRAS Tag character is:  
Version: 130122
Parent file type: Sandia GADRAS PCF
