$SPEC_ID:
152EU,1uC{26,3.50}
$MEAS_TIM:
3600.00 3600.00
$DATE_MEA:
3/9/2018 5:22:25 PM
$DATA:
0 1193
1197.555
1147.894
1058.331
1184.795
1061.783
923.828
806.644
709.883
632.580
565.325
526.942
494.241
464.012
441.665
426.091
415.110
406.894
404.083
409.699
421.204
442.781
469.210
491.446
511.755
533.388
562.540
597.612
631.726
666.201
714.060
775.120
839.153
890.916
925.141
960.142
1018.176
1130.882
1329.277
1621.816
1967.892
2255.818
2325.318
2122.109
1725.615
1290.328
952.064
746.721
652.230
624.240
622.660
625.242
627.208
625.475
619.877
613.621
609.433
608.711
610.578
614.248
619.222
624.282
628.251
630.740
631.505
630.369
627.683
624.198
620.243
615.855
611.108
606.037
600.320
593.964
588.757
587.189
592.530
607.773
633.535
669.259
711.465
755.287
792.797
814.982
816.705
795.764
754.426
700.126
640.503
583.050
534.261
496.009
468.621
450.970
440.869
436.176
434.921
435.257
436.223
437.160
437.719
437.869
437.753
438.248
440.447
446.009
457.305
476.803
507.218
551.330
610.801
684.344
770.167
863.307
955.723
1039.038
1104.297
1142.130
1145.334
1115.210
1055.157
970.315
869.484
762.095
656.307
558.366
474.199
406.598
354.211
315.370
288.139
270.206
259.279
253.498
251.614
252.400
254.830
258.197
261.803
265.096
267.796
269.663
270.550
270.679
270.321
269.744
269.036
268.230
267.357
266.242
264.586
262.052
258.450
253.780
248.057
241.358
233.955
226.224
218.515
211.147
204.361
198.413
193.478
189.491
186.311
183.787
181.781
180.144
178.737
177.419
176.133
174.836
173.499
172.104
170.686
169.302
167.996
166.789
165.688
164.691
163.812
163.062
162.472
162.085
161.907
161.888
161.944
161.995
161.972
161.854
161.648
161.340
160.924
160.358
159.613
158.638
157.412
155.968
154.365
152.644
150.840
148.996
147.123
145.245
143.381
141.573
139.847
138.237
136.783
135.485
134.334
133.319
132.442
131.688
131.076
130.625
130.339
130.224
130.261
130.435
130.718
131.092
131.543
132.071
132.663
133.300
133.978
134.642
135.250
135.754
136.123
136.340
136.406
136.319
136.087
135.703
135.169
134.499
133.680
132.731
131.700
130.678
129.739
128.963
128.439
128.230
128.405
129.032
130.187
131.917
134.260
137.246
140.906
145.271
150.291
155.859
161.844
168.129
174.585
181.022
187.178
192.806
197.648
201.480
204.144
205.587
205.752
204.560
201.961
198.066
193.049
187.103
180.413
173.180
165.599
157.892
150.278
142.974
136.195
130.060
124.607
119.853
115.828
112.554
110.019
108.125
106.777
105.873
105.322
105.022
104.877
104.811
104.725
104.534
104.150
103.550
102.723
101.670
100.394
98.889
97.183
95.335
93.440
91.548
89.747
88.101
86.688
85.563
84.807
84.483
84.652
85.363
86.594
88.338
90.567
93.275
96.432
99.980
103.808
107.835
111.952
116.077
120.092
123.883
127.331
130.293
132.660
134.293
135.129
135.157
134.414
132.904
130.656
127.675
124.032
119.848
115.219
110.279
105.130
99.898
94.675
89.572
84.680
80.104
75.931
72.268
69.162
66.627
64.689
63.361
62.666
62.614
63.210
64.426
66.252
68.657
71.635
75.148
79.178
83.644
88.486
93.651
99.061
104.669
110.373
116.096
121.697
127.087
132.136
136.756
140.824
144.296
147.120
149.226
150.583
151.115
150.802
149.637
147.698
145.033
141.705
137.755
133.261
128.266
122.867
117.120
111.116
104.932
98.632
92.308
86.017
79.847
73.855
68.121
62.716
57.711
53.138
48.986
45.223
41.824
38.767
36.026
33.577
31.393
29.459
27.751
26.252
24.938
23.795
22.795
21.926
21.165
20.494
19.896
19.349
18.840
18.349
17.879
17.426
16.992
16.574
16.174
15.791
15.425
15.078
14.752
14.449
14.169
13.916
13.691
13.495
13.325
13.179
13.055
12.953
12.868
12.799
12.746
12.707
12.684
12.674
12.681
12.701
12.737
12.791
12.875
13.000
13.179
13.423
13.742
14.151
14.660
15.284
16.037
16.935
17.991
19.221
20.638
22.256
24.071
26.076
28.260
30.616
33.139
35.814
38.637
41.582
44.609
47.672
50.737
53.755
56.694
59.500
62.151
64.595
66.796
68.727
70.338
71.605
72.476
72.938
72.964
72.590
71.821
70.689
69.200
67.383
65.256
62.835
60.170
57.295
54.262
51.107
47.878
44.618
41.372
38.168
35.034
31.986
29.048
26.237
23.577
21.087
18.785
16.678
14.753
13.007
11.428
10.010
8.745
7.624
6.640
5.781
5.036
4.395
3.845
3.377
2.977
2.636
2.342
2.090
1.875
1.692
1.537
1.405
1.292
1.193
1.104
1.024
0.951
0.884
0.823
0.767
0.714
0.665
0.617
0.572
0.528
0.487
0.448
0.411
0.376
0.344
0.314
0.287
0.262
0.239
0.218
0.199
0.182
0.167
0.153
0.141
0.130
0.120
0.112
0.105
0.098
0.093
0.088
0.083
0.080
0.076
0.074
0.071
0.069
0.067
0.065
0.064
0.062
0.061
0.059
0.058
0.056
0.055
0.054
0.053
0.051
0.050
0.049
0.048
0.047
0.046
0.045
0.044
0.043
0.042
0.041
0.040
0.039
0.038
0.037
0.037
0.036
0.035
0.035
0.034
0.033
0.033
0.032
0.031
0.031
0.030
0.029
0.029
0.028
0.027
0.026
0.025
0.025
0.024
0.023
0.022
0.021
0.020
0.019
0.018
0.017
0.016
0.015
0.014
0.013
0.012
0.011
0.010
0.009
0.008
0.007
0.007
0.006
0.005
0.005
0.004
0.004
0.003
0.003
0.003
0.002
0.002
0.002
0.001
0.001
0.001
0.001
0.001
0.001
0.001
0.000
0.000
0.000
0.000
0.000
0.000
0.000
0.000
0.000
0.000
0.000
0.000
0.000
0.000
0.000
0.000
0.000
0.000
0.000
0.000
0.000
0.000
0.000
0.000
0.000
0.000
0.000
0.000
0.000
-0.000
-0.000
-0.000
-0.000
-0.000
-0.000
-0.000
-0.000
-0.000
0.000
0.000
0.000
0.000
0.000
0.000
0.000
0.000
0.000
0.000
0.000
0.000
0.000
0.000
0.000
0.000
0
0
0
0
0
0
0
0
0
0
0
0
0
0
0
0
0
0
0
0
0
0
0
0
0
0
0
0
0
0
0
0
0
0
0
0
0
0
0
0
0
0
0
0
0
0
0
0
0
0
0
0
0
0
0
0
0
0
0
0
0
0
0
0
0
0
0
0
0
0
0
0
0
0
0
0
0
0
0
0
0
0
0
0
0
0
0
0
0
0
0
0
0
0
0
0
0
0
0
0
0
0
0
0
0
0
0
0
0
0
0
0
0
0
0
0
0
0
0
0
0
0
0
0
0
0
0
0
0
0
0
0
0
0
0
0
0
0
0
0
0
0
0
0
0
0
0
0
0
0
0
0
0
0
0
0
0
0
0
0
0
0
0
0
0
0
0
0
0
0
0
0
0
0
0
0
0
0
0
0
0
0
0
0
0
0
0
0
0
0
0
0
0
0
0
0
0
0
0
0
0
0
0
0
0
0
0
0
0
0
0
0
0
0
0
0
0
0
0
0
0
0
0
0
0
0
0
0
0
0
0
0
0
0
0
0
0
0
0
0
0
0
0
0
0
0
0
0
0
0
0
0
0
0
0
0
0
0
0
0
0
0
0
0
0
0
0
0
0
0
0
0
0
0
0
0
0
0
0
0
0
0
0
0
0
0
0
0
0
0
0
0
0
0
0
0
0
0
0
0
0
0
0
0
0
0
0
0
0
0
0
0
0
0
0
0
0
0
0
0
0
0
0
0
0
0
0
0
0
0
0
0
0
0
0
0
0
0
0
0
0
0
0
0
0
0
0
0
0
0
0
0
0
0
0
0
0
0
0
0
0
0
0
0
0
0
0
0
0
0
0
0
0
0
0
0
0
0
0
0
0
0
0
0
0
0
0
0
0
0
0
0
0
0
0
0
0
0
0
0
0
0
0
0
0
0
0
0
0
0
0
0
0
0
0
0
0
0
0
0
0
0
0
0
0
0
0
0
0
0
0
0
0
0
0
0
0
0
0
0
0
0
0
0
0
0
0
0
0
0
0
0
0
0
0
0
0
0
0
0
0
0
0
0
0
0
0
0
0
0
0
0
0
0
0
0
0
0
0
0
0
0
0
0
0
0
0
0
0
0
0
0
0
0
$MCA_CAL:
3
-1.4656616 2.9313233 0.00000000000000
$ENER_FIT:
-1.4656616 2.9313233 0.00000000000000
$MCA_CAL_DATA:
3
298 872
597 1749
896 2625
$CAMBIO:
Parent file specification: C:\GADRAS-DRF\Temp\152EU_125.0_50.0_iron_3.50_8.0.pcf
Successful read of spectrum: Yes
Error message: None
Warning: None
Information: None
Neutrons: 0
Number of spectral records in the parent file: 1
Record number of this spectrum in the parent file: 1
Date and time of acquisition read successfully from the original file: Yes
Live time read successfully from the original file: Yes
True time read successfully from the original file: Yes
GADRAS Tag character is:  
Version: 130122
Parent file type: Sandia GADRAS PCF
