$SPEC_ID:
152EU,1uC{13,4.18}
$MEAS_TIM:
3600.00 3600.00
$DATE_MEA:
3/9/2018 5:22:25 PM
$DATA:
0 1193
1154.979
1156.674
1203.171
1677.599
1478.489
1147.845
947.649
759.912
690.891
656.598
803.686
1409.211
2789.057
3753.019
3082.124
2023.078
1246.557
807.816
687.465
721.295
785.796
855.594
918.142
968.382
1024.205
1085.966
1141.848
1189.213
1240.925
1291.679
1345.569
1404.304
1447.131
1468.940
1491.983
1544.408
1666.403
1896.751
2244.625
2659.734
3000.508
3056.521
2761.027
2221.591
1640.615
1192.646
918.585
787.000
742.446
733.519
731.404
729.927
725.315
717.007
708.029
700.987
697.224
695.908
696.302
697.953
699.655
700.301
699.731
697.879
694.626
690.163
684.929
679.184
673.024
666.527
659.713
652.252
644.121
637.000
633.277
636.249
648.937
671.844
704.300
742.943
783.109
817.159
836.401
835.995
813.999
772.651
719.013
660.368
603.943
555.991
518.221
490.834
472.789
462.148
456.924
455.127
454.870
455.213
455.532
455.498
455.078
454.403
454.297
455.784
460.416
470.395
488.018
515.835
556.465
611.475
679.654
759.316
845.791
931.521
1008.629
1068.682
1102.849
1104.361
1074.552
1016.753
935.867
840.084
738.164
637.744
544.786
464.962
400.918
351.306
314.473
288.559
271.401
260.858
255.182
253.192
253.722
255.799
258.758
261.941
264.826
267.144
268.668
269.258
269.132
268.556
267.793
266.923
265.972
264.965
263.732
261.990
259.420
255.846
251.270
245.714
239.251
232.137
224.718
217.318
210.238
203.708
197.976
193.210
189.345
186.245
183.763
181.769
180.120
178.688
177.343
176.030
174.707
173.347
171.933
170.497
169.092
167.760
166.522
165.386
164.352
163.436
162.647
162.013
161.571
161.327
161.232
161.208
161.178
161.078
160.888
160.615
160.244
159.768
159.151
158.366
157.365
156.132
154.697
153.115
151.424
149.656
147.853
146.023
144.190
142.372
140.607
138.920
137.342
135.913
134.629
133.486
132.472
131.590
130.825
130.197
129.722
129.405
129.251
129.240
129.360
129.584
129.893
130.275
130.730
131.243
131.800
132.394
132.974
133.501
133.931
134.235
134.395
134.413
134.288
134.027
133.622
133.077
132.404
131.590
130.652
129.637
128.631
127.703
126.932
126.400
126.166
126.296
126.853
127.908
129.506
131.682
134.468
137.892
141.984
146.698
151.933
157.563
163.478
169.553
175.612
181.402
186.690
191.230
194.810
197.279
198.588
198.687
197.500
194.981
191.237
186.431
180.746
174.357
167.455
160.224
152.875
145.615
138.652
132.189
126.339
121.138
116.602
112.758
109.628
107.201
105.382
104.082
103.204
102.661
102.358
102.202
102.120
102.020
101.818
101.432
100.839
100.030
99.006
97.770
96.317
94.674
92.897
91.076
89.257
87.526
85.943
84.582
83.496
82.762
82.439
82.588
83.253
84.414
86.064
88.174
90.739
93.730
97.091
100.718
104.533
108.435
112.343
116.148
119.740
123.005
125.807
128.041
129.575
130.348
130.351
129.618
128.154
125.990
123.128
119.637
115.632
111.204
106.480
101.558
96.556
91.562
86.685
82.007
77.634
73.646
70.147
67.180
64.759
62.909
61.640
60.974
60.921
61.485
62.639
64.374
66.662
69.496
72.842
76.681
80.937
85.552
90.474
95.630
100.975
106.410
111.864
117.200
122.334
127.142
131.540
135.410
138.710
141.392
143.386
144.666
145.157
144.840
143.711
141.840
139.277
136.082
132.290
127.980
123.191
118.016
112.509
106.757
100.833
94.799
88.742
82.718
76.810
71.072
65.583
60.408
55.617
51.239
47.264
43.661
40.407
37.480
34.854
32.508
30.415
28.561
26.923
25.486
24.224
23.127
22.167
21.332
20.601
19.956
19.381
18.855
18.364
17.892
17.439
17.002
16.584
16.181
15.796
15.426
15.074
14.739
14.424
14.132
13.862
13.617
13.400
13.210
13.045
12.904
12.783
12.683
12.599
12.532
12.479
12.440
12.416
12.405
12.409
12.427
12.459
12.510
12.589
12.708
12.878
13.111
13.416
13.807
14.295
14.894
15.617
16.479
17.492
18.672
20.032
21.584
23.326
25.250
27.346
29.607
32.027
34.594
37.302
40.127
43.031
45.969
48.909
51.804
54.622
57.314
59.857
62.200
64.310
66.161
67.704
68.916
69.748
70.185
70.204
69.838
69.092
67.998
66.561
64.809
62.760
60.429
57.864
55.097
52.180
49.145
46.040
42.905
39.783
36.702
33.688
30.756
27.931
25.227
22.669
20.275
18.061
16.035
14.185
12.506
10.989
9.626
8.410
7.333
6.387
5.561
4.845
4.229
3.700
3.249
2.865
2.537
2.254
2.012
1.805
1.629
1.480
1.353
1.245
1.149
1.064
0.986
0.916
0.852
0.793
0.739
0.688
0.640
0.595
0.551
0.509
0.469
0.431
0.396
0.362
0.331
0.303
0.276
0.252
0.230
0.210
0.192
0.175
0.161
0.148
0.136
0.125
0.116
0.108
0.101
0.095
0.089
0.085
0.081
0.077
0.074
0.071
0.069
0.067
0.065
0.063
0.062
0.060
0.059
0.057
0.056
0.055
0.053
0.052
0.051
0.050
0.049
0.047
0.046
0.045
0.044
0.043
0.042
0.041
0.040
0.039
0.039
0.038
0.037
0.036
0.035
0.035
0.034
0.033
0.033
0.032
0.032
0.031
0.030
0.030
0.029
0.028
0.028
0.027
0.026
0.025
0.025
0.024
0.023
0.022
0.021
0.020
0.019
0.018
0.017
0.016
0.015
0.014
0.013
0.012
0.011
0.010
0.010
0.009
0.008
0.007
0.007
0.006
0.005
0.005
0.004
0.004
0.003
0.003
0.002
0.002
0.002
0.002
0.001
0.001
0.001
0.001
0.001
0.001
0.001
0.000
0.000
0.000
0.000
0.000
0.000
0.000
0.000
0.000
0.000
0.000
0.000
0.000
0.000
0.000
0.000
0.000
0.000
0.000
0.000
0.000
0.000
0.000
0.000
0.000
0.000
0.000
0.000
0.000
-0.000
-0.000
-0.000
-0.000
-0.000
-0.000
-0.000
-0.000
-0.000
0.000
0.000
0.000
0.000
0.000
0.000
0.000
0.000
0.000
0.000
0.000
0.000
0.000
0.000
0.000
0.000
0
0
0
0
0
0
0
0
0
0
0
0
0
0
0
0
0
0
0
0
0
0
0
0
0
0
0
0
0
0
0
0
0
0
0
0
0
0
0
0
0
0
0
0
0
0
0
0
0
0
0
0
0
0
0
0
0
0
0
0
0
0
0
0
0
0
0
0
0
0
0
0
0
0
0
0
0
0
0
0
0
0
0
0
0
0
0
0
0
0
0
0
0
0
0
0
0
0
0
0
0
0
0
0
0
0
0
0
0
0
0
0
0
0
0
0
0
0
0
0
0
0
0
0
0
0
0
0
0
0
0
0
0
0
0
0
0
0
0
0
0
0
0
0
0
0
0
0
0
0
0
0
0
0
0
0
0
0
0
0
0
0
0
0
0
0
0
0
0
0
0
0
0
0
0
0
0
0
0
0
0
0
0
0
0
0
0
0
0
0
0
0
0
0
0
0
0
0
0
0
0
0
0
0
0
0
0
0
0
0
0
0
0
0
0
0
0
0
0
0
0
0
0
0
0
0
0
0
0
0
0
0
0
0
0
0
0
0
0
0
0
0
0
0
0
0
0
0
0
0
0
0
0
0
0
0
0
0
0
0
0
0
0
0
0
0
0
0
0
0
0
0
0
0
0
0
0
0
0
0
0
0
0
0
0
0
0
0
0
0
0
0
0
0
0
0
0
0
0
0
0
0
0
0
0
0
0
0
0
0
0
0
0
0
0
0
0
0
0
0
0
0
0
0
0
0
0
0
0
0
0
0
0
0
0
0
0
0
0
0
0
0
0
0
0
0
0
0
0
0
0
0
0
0
0
0
0
0
0
0
0
0
0
0
0
0
0
0
0
0
0
0
0
0
0
0
0
0
0
0
0
0
0
0
0
0
0
0
0
0
0
0
0
0
0
0
0
0
0
0
0
0
0
0
0
0
0
0
0
0
0
0
0
0
0
0
0
0
0
0
0
0
0
0
0
0
0
0
0
0
0
0
0
0
0
0
0
0
0
0
0
0
0
0
0
0
0
0
0
0
0
0
0
0
0
0
0
0
0
0
0
0
0
0
0
0
0
0
0
0
0
0
0
0
0
0
0
0
0
0
0
0
0
0
0
0
0
0
0
0
0
0
0
0
$MCA_CAL:
3
-1.4656616 2.9313233 0.00000000000000
$ENER_FIT:
-1.4656616 2.9313233 0.00000000000000
$MCA_CAL_DATA:
3
298 872
597 1749
896 2625
$CAMBIO:
Parent file specification: C:\GADRAS-DRF\Temp\152EU_125.0_50.0_alum_4.18_8.0.pcf
Successful read of spectrum: Yes
Error message: None
Warning: None
Information: None
Neutrons: 0
Number of spectral records in the parent file: 1
Record number of this spectrum in the parent file: 1
Date and time of acquisition read successfully from the original file: Yes
Live time read successfully from the original file: Yes
True time read successfully from the original file: Yes
GADRAS Tag character is:  
Version: 130122
Parent file type: Sandia GADRAS PCF
