$SPEC_ID:
152EU,1uC{13,4.18}
$MEAS_TIM:
3600.00 3600.00
$DATE_MEA:
3/9/2018 5:22:25 PM
$DATA:
0 1193
1324.803
1339.985
1370.477
1997.335
1668.161
1308.011
1074.307
865.124
784.969
734.720
832.273
1325.495
2924.690
4314.726
3178.216
2076.458
1269.709
800.774
748.911
817.896
896.751
982.205
1055.721
1099.457
1157.990
1238.268
1315.215
1362.978
1383.712
1410.905
1458.033
1517.725
1559.237
1572.257
1584.831
1611.082
1678.199
1852.047
2205.972
2797.543
3404.743
3593.254
3121.455
2288.600
1519.488
1049.704
858.931
811.302
817.021
836.074
850.172
853.096
843.585
824.205
802.973
785.969
774.903
768.721
766.064
766.121
767.150
767.052
765.216
762.182
758.355
753.051
747.577
743.060
738.298
732.510
725.538
717.702
708.210
696.037
683.152
673.568
673.228
687.857
721.545
772.730
834.741
894.333
934.660
938.233
902.149
832.674
746.116
659.663
586.704
534.126
499.612
479.133
467.725
462.045
460.209
460.655
462.025
463.587
464.939
465.487
464.490
461.784
457.655
453.000
449.273
448.268
452.185
464.838
492.077
539.293
610.641
708.214
827.880
962.607
1094.859
1203.761
1271.647
1283.424
1234.916
1136.731
1002.597
851.982
704.750
573.486
467.020
388.354
332.881
295.556
271.636
256.585
247.523
242.992
241.775
243.350
247.282
252.905
259.403
265.889
271.320
274.657
275.628
274.650
272.254
269.261
266.608
264.964
264.588
265.643
267.464
268.844
268.651
266.355
261.581
254.255
245.002
234.522
223.612
213.144
203.982
196.481
190.667
186.506
183.743
182.011
180.940
180.240
179.625
178.866
177.895
176.706
175.291
173.709
172.022
170.290
168.595
167.008
165.581
164.310
163.168
162.158
161.328
160.756
160.508
160.510
160.653
160.830
161.009
161.202
161.413
161.603
161.663
161.494
161.026
160.253
159.157
157.746
156.070
154.201
152.194
150.091
147.955
145.816
143.714
141.673
139.727
137.894
136.204
134.699
133.397
132.293
131.346
130.531
129.807
129.198
128.728
128.406
128.235
128.200
128.295
128.505
128.840
129.306
129.920
130.665
131.508
132.439
133.415
134.378
135.258
135.994
136.522
136.815
136.841
136.583
136.032
135.217
134.175
132.919
131.491
129.921
128.250
126.518
124.827
123.297
122.033
121.132
120.649
120.639
121.148
122.271
124.175
127.035
131.020
136.206
142.555
150.009
158.512
167.846
177.626
187.433
196.864
205.466
212.765
218.239
221.413
222.063
220.277
216.178
209.904
201.697
192.027
181.376
170.242
159.055
148.170
137.919
128.638
120.599
113.833
108.325
104.043
100.955
98.943
97.860
97.546
97.849
98.628
99.764
101.125
102.580
104.008
105.258
106.184
106.640
106.505
105.765
104.455
102.614
100.273
97.512
94.443
91.209
87.911
84.686
81.639
78.892
76.548
74.729
73.507
72.926
73.043
73.897
75.532
77.934
81.103
85.020
89.680
95.000
100.860
107.114
113.637
120.265
126.764
132.864
138.267
142.715
145.968
147.953
148.580
147.804
145.546
141.881
136.995
131.112
124.454
117.214
109.631
101.911
94.286
86.964
80.158
73.944
68.366
63.454
59.255
55.794
53.050
51.007
49.633
48.905
48.803
49.334
50.500
52.317
54.784
57.915
61.694
66.135
71.216
76.936
83.273
90.122
97.392
104.958
112.747
120.603
128.367
135.825
142.804
149.087
154.514
158.983
162.389
164.672
165.720
165.492
163.991
161.311
157.519
152.694
146.895
140.275
132.981
125.202
117.086
108.816
100.536
92.345
84.370
76.708
69.483
62.773
56.616
51.028
46.028
41.630
37.853
34.649
31.950
29.689
27.795
26.198
24.844
23.710
22.767
21.995
21.365
20.858
20.441
20.092
19.779
19.474
19.154
18.798
18.413
17.996
17.553
17.082
16.589
16.081
15.569
15.063
14.576
14.115
13.691
13.310
12.975
12.692
12.467
12.304
12.200
12.149
12.142
12.174
12.234
12.317
12.410
12.502
12.580
12.633
12.648
12.617
12.544
12.433
12.290
12.118
11.924
11.720
11.527
11.373
11.281
11.275
11.379
11.624
12.040
12.662
13.520
14.650
16.083
17.840
19.927
22.353
25.127
28.254
31.743
35.564
39.661
43.971
48.442
53.007
57.615
62.172
66.594
70.762
74.575
77.940
80.743
82.931
84.464
85.344
85.526
85.003
83.743
81.775
79.164
76.006
72.384
68.373
64.068
59.542
54.887
50.170
45.480
40.894
36.493
32.344
28.476
24.892
21.605
18.620
15.946
13.591
11.540
9.772
8.256
6.970
5.884
4.975
4.218
3.597
3.092
2.688
2.366
2.111
1.905
1.739
1.608
1.503
1.420
1.350
1.289
1.231
1.176
1.123
1.071
1.019
0.967
0.913
0.859
0.804
0.749
0.694
0.640
0.587
0.535
0.485
0.437
0.392
0.350
0.312
0.277
0.246
0.219
0.195
0.174
0.156
0.140
0.127
0.116
0.107
0.099
0.093
0.088
0.083
0.080
0.077
0.074
0.072
0.071
0.069
0.068
0.067
0.066
0.065
0.064
0.063
0.062
0.061
0.060
0.059
0.057
0.056
0.055
0.054
0.053
0.051
0.050
0.048
0.047
0.046
0.044
0.043
0.042
0.040
0.039
0.038
0.037
0.036
0.035
0.035
0.034
0.034
0.033
0.033
0.033
0.032
0.032
0.032
0.032
0.032
0.031
0.031
0.031
0.030
0.030
0.029
0.028
0.027
0.026
0.025
0.024
0.023
0.021
0.020
0.019
0.017
0.016
0.014
0.013
0.012
0.011
0.010
0.008
0.007
0.007
0.006
0.005
0.004
0.004
0.003
0.003
0.002
0.002
0.001
0.001
0.001
0.001
0.001
0.001
0.000
0.000
0.000
0.000
0.000
0.000
0.000
0.000
0.000
0.000
0.000
0.000
0.000
0.000
0.000
0.000
0.000
0.000
0.000
0.000
0.000
0.000
0.000
-0.000
-0.000
-0.000
-0.000
-0.000
-0.000
-0.000
0.000
0.000
0.000
0.000
0.000
0.000
0.000
0.000
-0.000
-0.000
-0.000
-0.000
-0.000
-0.000
-0.000
-0.000
0.000
0.000
0.000
0.000
0
0
0
0
0
0
0
0
0
0
0
0
0
0
0
0
0
0
0
0
0
0
0
0
0
0
0
0
0
0
0
0
0
0
0
0
0
0
0
0
0
0
0
0
0
0
0
0
0
0
0
0
0
0
0
0
0
0
0
0
0
0
0
0
0
0
0
0
0
0
0
0
0
0
0
0
0
0
0
0
0
0
0
0
0
0
0
0
0
0
0
0
0
0
0
0
0
0
0
0
0
0
0
0
0
0
0
0
0
0
0
0
0
0
0
0
0
0
0
0
0
0
0
0
0
0
0
0
0
0
0
0
0
0
0
0
0
0
0
0
0
0
0
0
0
0
0
0
0
0
0
0
0
0
0
0
0
0
0
0
0
0
0
0
0
0
0
0
0
0
0
0
0
0
0
0
0
0
0
0
0
0
0
0
0
0
0
0
0
0
0
0
0
0
0
0
0
0
0
0
0
0
0
0
0
0
0
0
0
0
0
0
0
0
0
0
0
0
0
0
0
0
0
0
0
0
0
0
0
0
0
0
0
0
0
0
0
0
0
0
0
0
0
0
0
0
0
0
0
0
0
0
0
0
0
0
0
0
0
0
0
0
0
0
0
0
0
0
0
0
0
0
0
0
0
0
0
0
0
0
0
0
0
0
0
0
0
0
0
0
0
0
0
0
0
0
0
0
0
0
0
0
0
0
0
0
0
0
0
0
0
0
0
0
0
0
0
0
0
0
0
0
0
0
0
0
0
0
0
0
0
0
0
0
0
0
0
0
0
0
0
0
0
0
0
0
0
0
0
0
0
0
0
0
0
0
0
0
0
0
0
0
0
0
0
0
0
0
0
0
0
0
0
0
0
0
0
0
0
0
0
0
0
0
0
0
0
0
0
0
0
0
0
0
0
0
0
0
0
0
0
0
0
0
0
0
0
0
0
0
0
0
0
0
0
0
0
0
0
0
0
0
0
0
0
0
0
0
0
0
0
0
0
0
0
0
0
0
0
0
0
0
0
0
0
0
0
0
0
0
0
0
0
0
0
0
0
0
0
0
0
0
0
0
0
0
0
0
0
0
0
0
0
0
0
0
0
0
0
0
0
0
0
0
0
0
0
0
0
0
0
0
0
0
0
0
0
0
0
0
0
0
0
0
0
$MCA_CAL:
3
-1.4656616 2.9313233 0.00000000000000
$ENER_FIT:
-1.4656616 2.9313233 0.00000000000000
$MCA_CAL_DATA:
3
298 872
597 1749
896 2625
$CAMBIO:
Parent file specification: C:\GADRAS-DRF\Temp\152EU_75.0_50.0_alum_4.18_6.5.pcf
Successful read of spectrum: Yes
Error message: None
Warning: None
Information: None
Neutrons: 0
Number of spectral records in the parent file: 1
Record number of this spectrum in the parent file: 1
Date and time of acquisition read successfully from the original file: Yes
Live time read successfully from the original file: Yes
True time read successfully from the original file: Yes
GADRAS Tag character is:  
Version: 130122
Parent file type: Sandia GADRAS PCF
