$SPEC_ID:
152EU,1uC{26,1.53}
$MEAS_TIM:
3600.00 3600.00
$DATE_MEA:
3/9/2018 5:22:25 PM
$DATA:
0 1193
1493.738
1462.104
1351.871
1380.534
1189.609
1035.501
894.744
776.099
690.835
618.213
578.994
565.749
606.233
663.946
659.083
624.273
536.947
466.476
452.157
461.795
485.269
515.991
545.035
565.027
597.024
647.143
702.555
736.886
759.262
802.745
877.169
956.980
1016.386
1047.716
1077.650
1130.390
1251.140
1523.478
2023.651
2742.876
3424.557
3647.214
3232.389
2398.086
1548.089
979.311
701.301
608.419
599.279
613.531
623.398
624.017
616.304
602.479
589.681
581.795
579.440
581.390
586.737
594.362
602.574
609.331
613.571
615.535
615.002
612.218
608.645
605.029
601.271
596.400
590.065
583.058
575.195
566.216
559.424
559.682
572.948
604.126
656.117
725.973
805.033
878.184
927.296
939.368
906.667
837.885
747.812
653.248
569.655
503.819
458.788
431.304
416.460
410.165
408.796
410.190
412.807
415.743
418.392
420.143
420.333
418.860
416.337
413.837
413.478
417.818
431.002
457.704
503.185
573.100
670.259
793.295
938.205
1092.062
1239.285
1361.250
1436.837
1451.608
1407.031
1307.745
1167.873
1006.665
841.953
688.064
558.120
455.830
379.045
324.914
288.743
265.582
251.739
244.866
242.788
244.322
248.653
254.907
262.094
269.186
275.343
279.933
282.408
282.912
282.092
280.582
279.045
278.124
278.269
279.112
280.056
280.493
279.663
276.826
271.514
263.952
254.483
243.594
232.146
221.027
210.967
202.282
195.251
189.987
186.241
183.700
182.043
180.967
180.156
179.341
178.408
177.312
176.002
174.515
172.915
171.265
169.638
168.088
166.670
165.426
164.371
163.524
162.889
162.488
162.357
162.507
162.885
163.373
163.852
164.238
164.529
164.750
164.898
164.903
164.648
164.030
162.980
161.563
159.849
157.918
155.822
153.601
151.322
149.018
146.733
144.500
142.367
140.361
138.515
136.873
135.454
134.246
133.218
132.348
131.602
131.006
130.587
130.361
130.338
130.495
130.820
131.284
131.879
132.607
133.477
134.484
135.592
136.767
137.951
139.096
140.141
141.033
141.699
142.087
142.185
142.016
141.585
140.907
140.001
138.854
137.483
135.895
134.184
132.468
130.873
129.536
128.549
128.000
127.973
128.559
129.852
131.975
135.049
139.195
144.480
150.869
158.327
166.800
176.190
186.176
196.394
206.456
215.990
224.576
231.799
237.194
240.346
241.045
239.382
235.486
229.502
221.588
212.129
201.561
190.338
178.883
167.572
156.704
146.579
137.492
129.685
123.179
117.922
113.874
110.985
109.162
108.225
108.004
108.322
109.017
109.950
110.992
112.035
112.950
113.622
113.952
113.847
113.204
111.929
110.038
107.641
104.867
101.829
98.670
95.482
92.393
89.504
86.933
84.776
83.136
82.092
81.724
82.128
83.360
85.424
88.289
91.945
96.365
101.510
107.237
113.419
119.903
126.560
133.206
139.615
145.551
150.750
154.988
158.050
159.888
160.436
159.673
157.541
154.057
149.362
143.663
137.162
130.037
122.502
114.736
106.944
99.299
92.010
85.249
79.116
73.642
68.878
64.859
61.622
59.192
57.554
56.705
56.630
57.327
58.779
60.989
63.938
67.630
72.043
77.187
82.992
89.395
96.340
103.746
111.561
119.653
127.888
136.059
144.023
151.585
158.604
164.918
170.417
174.977
178.445
180.726
181.729
181.509
180.066
177.453
173.692
168.833
162.975
156.297
148.928
141.046
132.781
124.293
115.704
107.115
98.664
90.451
82.608
75.201
68.280
61.883
56.051
50.817
46.223
42.236
38.793
35.838
33.306
31.138
29.272
27.677
26.319
25.172
24.204
23.390
22.697
22.103
21.583
21.112
20.668
20.224
19.767
19.291
18.804
18.305
17.802
17.294
16.788
16.289
15.808
15.349
14.921
14.533
14.189
13.893
13.643
13.441
13.286
13.179
13.118
13.096
13.102
13.127
13.160
13.190
13.211
13.215
13.204
13.176
13.130
13.065
12.982
12.888
12.805
12.750
12.743
12.804
12.952
13.211
13.608
14.176
14.944
15.945
17.207
18.759
20.612
22.775
25.253
28.050
31.179
34.639
38.410
42.441
46.679
51.064
55.551
60.078
64.594
69.004
73.241
77.200
80.795
83.950
86.565
88.600
90.022
90.842
91.020
90.560
89.434
87.651
85.248
82.312
78.915
75.122
71.019
66.668
62.152
57.528
52.869
48.238
43.704
39.326
35.177
31.287
27.667
24.316
21.243
18.450
15.939
13.717
11.767
10.072
8.606
7.349
6.278
5.373
4.610
3.973
3.448
3.019
2.671
2.390
2.160
1.968
1.807
1.671
1.558
1.462
1.378
1.303
1.232
1.163
1.098
1.034
0.972
0.912
0.853
0.795
0.737
0.682
0.627
0.575
0.525
0.478
0.433
0.391
0.353
0.317
0.285
0.255
0.229
0.206
0.185
0.168
0.152
0.139
0.128
0.119
0.111
0.104
0.098
0.093
0.089
0.086
0.083
0.081
0.079
0.077
0.075
0.073
0.072
0.071
0.069
0.068
0.067
0.066
0.064
0.063
0.062
0.060
0.059
0.057
0.056
0.054
0.053
0.052
0.050
0.049
0.048
0.046
0.045
0.044
0.043
0.042
0.041
0.040
0.040
0.039
0.038
0.038
0.037
0.037
0.036
0.036
0.035
0.035
0.035
0.034
0.033
0.033
0.032
0.031
0.030
0.029
0.028
0.027
0.026
0.025
0.023
0.022
0.021
0.019
0.018
0.017
0.015
0.014
0.013
0.012
0.010
0.009
0.008
0.007
0.007
0.006
0.005
0.004
0.004
0.003
0.003
0.002
0.002
0.002
0.001
0.001
0.001
0.001
0.001
0.001
0.000
0.000
0.000
0.000
0.000
0.000
0.000
0.000
0.000
0.000
0.000
0.000
0.000
0.000
0.000
0.000
0.000
0.000
0.000
-0.000
-0.000
-0.000
-0.000
-0.000
-0.000
-0.000
-0.000
0.000
0.000
0.000
0.000
0.000
0.000
0.000
0.000
-0.000
-0.000
-0.000
-0.000
-0.000
-0.000
-0.000
-0.000
-0.000
0.000
0.000
0.000
0.000
0.000
0
0
0
0
0
0
0
0
0
0
0
0
0
0
0
0
0
0
0
0
0
0
0
0
0
0
0
0
0
0
0
0
0
0
0
0
0
0
0
0
0
0
0
0
0
0
0
0
0
0
0
0
0
0
0
0
0
0
0
0
0
0
0
0
0
0
0
0
0
0
0
0
0
0
0
0
0
0
0
0
0
0
0
0
0
0
0
0
0
0
0
0
0
0
0
0
0
0
0
0
0
0
0
0
0
0
0
0
0
0
0
0
0
0
0
0
0
0
0
0
0
0
0
0
0
0
0
0
0
0
0
0
0
0
0
0
0
0
0
0
0
0
0
0
0
0
0
0
0
0
0
0
0
0
0
0
0
0
0
0
0
0
0
0
0
0
0
0
0
0
0
0
0
0
0
0
0
0
0
0
0
0
0
0
0
0
0
0
0
0
0
0
0
0
0
0
0
0
0
0
0
0
0
0
0
0
0
0
0
0
0
0
0
0
0
0
0
0
0
0
0
0
0
0
0
0
0
0
0
0
0
0
0
0
0
0
0
0
0
0
0
0
0
0
0
0
0
0
0
0
0
0
0
0
0
0
0
0
0
0
0
0
0
0
0
0
0
0
0
0
0
0
0
0
0
0
0
0
0
0
0
0
0
0
0
0
0
0
0
0
0
0
0
0
0
0
0
0
0
0
0
0
0
0
0
0
0
0
0
0
0
0
0
0
0
0
0
0
0
0
0
0
0
0
0
0
0
0
0
0
0
0
0
0
0
0
0
0
0
0
0
0
0
0
0
0
0
0
0
0
0
0
0
0
0
0
0
0
0
0
0
0
0
0
0
0
0
0
0
0
0
0
0
0
0
0
0
0
0
0
0
0
0
0
0
0
0
0
0
0
0
0
0
0
0
0
0
0
0
0
0
0
0
0
0
0
0
0
0
0
0
0
0
0
0
0
0
0
0
0
0
0
0
0
0
0
0
0
0
0
0
0
0
0
0
0
0
0
0
0
0
0
0
0
0
0
0
0
0
0
0
0
0
0
0
0
0
0
0
0
0
0
0
0
0
0
0
0
0
0
0
0
0
0
0
0
0
0
0
0
0
0
0
0
0
0
0
0
0
0
0
0
0
0
0
0
0
0
0
0
0
0
0
$MCA_CAL:
3
-1.4656616 2.9313233 0.00000000000000
$ENER_FIT:
-1.4656616 2.9313233 0.00000000000000
$MCA_CAL_DATA:
3
298 872
597 1749
896 2625
$CAMBIO:
Parent file specification: C:\GADRAS-DRF\Temp\152EU_100.0_50.0_iron_1.53_7.0.pcf
Successful read of spectrum: Yes
Error message: None
Warning: None
Information: None
Neutrons: 0
Number of spectral records in the parent file: 1
Record number of this spectrum in the parent file: 1
Date and time of acquisition read successfully from the original file: Yes
Live time read successfully from the original file: Yes
True time read successfully from the original file: Yes
GADRAS Tag character is:  
Version: 130122
Parent file type: Sandia GADRAS PCF
