$SPEC_ID:
152EU,1uC{82,0.51}
$MEAS_TIM:
3600.00 3600.00
$DATE_MEA:
3/9/2018 5:22:25 PM
$DATA:
0 1193
1467.423
1381.227
1265.522
1161.863
1021.734
901.609
792.321
700.754
627.514
562.844
527.040
500.433
485.941
483.784
478.076
463.059
431.932
406.451
400.820
406.404
417.635
433.097
441.024
441.092
436.474
437.552
441.968
446.092
447.561
455.127
470.192
487.728
502.245
512.182
522.051
540.040
579.833
661.263
799.564
979.609
1139.423
1193.918
1106.450
920.560
720.891
577.228
504.745
483.881
489.494
502.910
510.844
509.965
502.305
490.288
478.727
471.585
469.343
471.093
475.684
482.570
490.118
496.259
500.666
503.323
504.024
503.005
500.842
498.269
495.542
491.694
486.328
480.069
473.582
467.662
464.972
469.264
484.389
513.709
557.822
614.973
676.505
731.441
768.215
776.617
755.034
705.883
639.147
567.553
500.613
445.733
405.621
379.180
364.193
357.172
355.039
355.892
358.108
360.817
363.348
365.232
366.097
366.015
365.788
366.521
370.617
380.877
400.993
435.495
488.451
562.474
659.552
777.078
908.579
1045.632
1172.899
1273.816
1336.080
1352.180
1316.705
1235.974
1121.049
983.893
838.971
700.777
578.523
475.883
395.818
336.900
295.386
267.667
250.695
241.612
237.933
238.331
241.656
246.838
252.994
259.245
264.889
269.479
272.612
274.208
274.714
274.591
274.249
273.968
274.022
274.416
274.633
274.135
272.423
269.208
264.205
257.268
248.789
239.257
229.192
219.139
209.687
201.382
194.467
188.894
184.630
181.551
179.370
177.801
176.568
175.514
174.498
173.402
172.171
170.832
169.409
167.927
166.455
165.051
163.771
162.651
161.700
160.939
160.373
160.021
159.910
160.050
160.404
160.876
161.364
161.779
162.085
162.283
162.356
162.283
161.997
161.437
160.524
159.248
157.669
155.864
153.893
151.798
149.638
147.438
145.243
143.087
141.018
139.066
137.266
135.642
134.195
132.937
131.871
131.007
130.322
129.819
129.498
129.350
129.376
129.572
129.944
130.475
131.156
131.972
132.919
133.966
135.072
136.222
137.372
138.478
139.475
140.313
140.921
141.266
141.358
141.222
140.867
140.307
139.559
138.604
137.455
136.113
134.667
133.244
131.979
131.018
130.470
130.424
130.958
132.159
134.100
136.858
140.505
145.115
150.759
157.431
164.999
173.296
182.167
191.439
200.824
209.932
218.391
225.815
231.887
236.368
239.090
239.882
238.550
235.101
229.799
222.900
214.678
205.401
195.395
184.990
174.534
164.369
154.815
146.044
138.168
131.310
125.576
121.042
117.610
115.148
113.510
112.558
112.157
112.189
112.529
113.050
113.645
114.187
114.568
114.677
114.413
113.660
112.354
110.570
108.402
105.951
103.304
100.581
97.857
95.246
92.836
90.736
89.027
87.804
87.135
87.089
87.750
89.180
91.392
94.330
97.963
102.237
107.118
112.501
118.250
124.192
130.182
136.045
141.625
146.759
151.246
154.932
157.623
159.166
159.490
158.661
156.708
153.693
149.641
144.642
138.869
132.483
125.684
118.637
111.533
104.504
97.692
91.215
85.208
79.786
75.068
71.082
67.845
65.384
63.711
62.850
62.800
63.555
65.092
67.407
70.474
74.290
78.798
83.967
89.724
96.017
102.804
110.003
117.515
125.176
132.884
140.466
147.811
154.759
161.206
166.997
172.023
176.157
179.249
181.235
182.088
181.856
180.526
178.138
174.703
170.272
164.938
158.850
152.103
144.848
137.180
129.238
121.132
112.958
104.843
96.880
89.197
81.873
74.961
68.488
62.486
56.977
52.002
47.575
43.671
40.247
37.259
34.660
32.402
30.447
28.752
27.294
26.036
24.959
24.023
23.207
22.481
21.830
21.241
20.694
20.179
19.675
19.172
18.668
18.168
17.675
17.192
16.725
16.276
15.849
15.447
15.076
14.738
14.438
14.181
13.968
13.795
13.660
13.555
13.478
13.423
13.385
13.361
13.346
13.338
13.333
13.328
13.320
13.306
13.295
13.300
13.332
13.407
13.537
13.734
14.014
14.401
14.920
15.593
16.448
17.507
18.798
20.336
22.131
24.188
26.513
29.110
31.983
35.142
38.567
42.218
46.049
50.017
54.070
58.173
62.270
66.316
70.228
73.956
77.415
80.537
83.264
85.513
87.256
88.467
89.163
89.309
88.918
87.965
86.458
84.402
81.866
78.910
75.585
71.963
68.093
64.048
59.874
55.630
51.366
47.134
42.978
38.958
35.117
31.505
28.125
24.982
22.076
19.407
16.979
14.790
12.843
11.123
9.616
8.303
7.167
6.188
5.351
4.638
4.032
3.523
3.098
2.747
2.457
2.218
2.017
1.844
1.694
1.564
1.452
1.353
1.266
1.186
1.112
1.041
0.974
0.909
0.847
0.787
0.731
0.676
0.624
0.574
0.527
0.482
0.440
0.401
0.364
0.330
0.299
0.271
0.246
0.223
0.202
0.184
0.168
0.153
0.141
0.130
0.121
0.114
0.107
0.101
0.097
0.092
0.089
0.086
0.083
0.080
0.078
0.076
0.075
0.073
0.071
0.070
0.068
0.067
0.065
0.064
0.063
0.061
0.060
0.058
0.057
0.056
0.054
0.053
0.052
0.050
0.049
0.048
0.047
0.046
0.045
0.044
0.043
0.042
0.041
0.041
0.040
0.039
0.039
0.038
0.037
0.037
0.036
0.035
0.035
0.034
0.033
0.032
0.032
0.031
0.030
0.029
0.028
0.026
0.025
0.024
0.023
0.021
0.020
0.019
0.018
0.016
0.015
0.014
0.013
0.012
0.011
0.010
0.009
0.008
0.007
0.006
0.005
0.005
0.004
0.004
0.003
0.003
0.002
0.002
0.002
0.001
0.001
0.001
0.001
0.001
0.001
0.000
0.000
0.000
0.000
0.000
0.000
0.000
0.000
0.000
0.000
0.000
0.000
0.000
0.000
0.000
0.000
0.000
0.000
0.000
0.000
0.000
0.000
0.000
-0.000
-0.000
-0.000
-0.000
-0.000
-0.000
-0.000
-0.000
-0.000
0.000
0.000
0.000
0.000
0.000
0.000
0.000
0.000
0.000
0.000
0.000
0.000
0.000
0.000
0
0
0
0
0
0
0
0
0
0
0
0
0
0
0
0
0
0
0
0
0
0
0
0
0
0
0
0
0
0
0
0
0
0
0
0
0
0
0
0
0
0
0
0
0
0
0
0
0
0
0
0
0
0
0
0
0
0
0
0
0
0
0
0
0
0
0
0
0
0
0
0
0
0
0
0
0
0
0
0
0
0
0
0
0
0
0
0
0
0
0
0
0
0
0
0
0
0
0
0
0
0
0
0
0
0
0
0
0
0
0
0
0
0
0
0
0
0
0
0
0
0
0
0
0
0
0
0
0
0
0
0
0
0
0
0
0
0
0
0
0
0
0
0
0
0
0
0
0
0
0
0
0
0
0
0
0
0
0
0
0
0
0
0
0
0
0
0
0
0
0
0
0
0
0
0
0
0
0
0
0
0
0
0
0
0
0
0
0
0
0
0
0
0
0
0
0
0
0
0
0
0
0
0
0
0
0
0
0
0
0
0
0
0
0
0
0
0
0
0
0
0
0
0
0
0
0
0
0
0
0
0
0
0
0
0
0
0
0
0
0
0
0
0
0
0
0
0
0
0
0
0
0
0
0
0
0
0
0
0
0
0
0
0
0
0
0
0
0
0
0
0
0
0
0
0
0
0
0
0
0
0
0
0
0
0
0
0
0
0
0
0
0
0
0
0
0
0
0
0
0
0
0
0
0
0
0
0
0
0
0
0
0
0
0
0
0
0
0
0
0
0
0
0
0
0
0
0
0
0
0
0
0
0
0
0
0
0
0
0
0
0
0
0
0
0
0
0
0
0
0
0
0
0
0
0
0
0
0
0
0
0
0
0
0
0
0
0
0
0
0
0
0
0
0
0
0
0
0
0
0
0
0
0
0
0
0
0
0
0
0
0
0
0
0
0
0
0
0
0
0
0
0
0
0
0
0
0
0
0
0
0
0
0
0
0
0
0
0
0
0
0
0
0
0
0
0
0
0
0
0
0
0
0
0
0
0
0
0
0
0
0
0
0
0
0
0
0
0
0
0
0
0
0
0
0
0
0
0
0
0
0
0
0
0
0
0
0
0
0
0
0
0
0
0
0
0
0
0
0
0
0
0
0
0
0
0
0
0
0
0
0
0
0
0
0
0
0
0
0
0
0
0
0
$MCA_CAL:
3
-1.4656616 2.9313233 0.00000000000000
$ENER_FIT:
-1.4656616 2.9313233 0.00000000000000
$MCA_CAL_DATA:
3
298 872
597 1749
896 2625
$CAMBIO:
Parent file specification: C:\GADRAS-DRF\Temp\152EU_100.0_50.0_lead_0.51_7.5.pcf
Successful read of spectrum: Yes
Error message: None
Warning: None
Information: None
Neutrons: 0
Number of spectral records in the parent file: 1
Record number of this spectrum in the parent file: 1
Date and time of acquisition read successfully from the original file: Yes
Live time read successfully from the original file: Yes
True time read successfully from the original file: Yes
GADRAS Tag character is:  
Version: 130122
Parent file type: Sandia GADRAS PCF
