$SPEC_ID:
152EU,1uC{26,1.53}
$MEAS_TIM:
3600.00 3600.00
$DATE_MEA:
3/9/2018 5:22:25 PM
$DATA:
0 1193
1933.845
1954.186
1816.552
1857.808
1602.750
1383.878
1189.777
1030.791
916.725
819.278
768.167
745.724
781.593
840.948
829.159
802.199
712.707
649.790
652.641
677.660
719.261
773.303
821.490
853.979
902.078
979.913
1064.723
1109.530
1099.859
1092.063
1123.385
1179.995
1228.833
1259.848
1297.316
1353.416
1456.748
1690.925
2174.582
2957.423
3760.087
4051.202
3541.497
2552.217
1618.255
1048.394
817.978
764.109
781.037
817.001
851.679
875.014
880.010
865.710
840.789
813.891
791.359
776.050
767.138
763.361
761.633
758.419
752.998
745.701
737.174
728.145
720.961
716.937
714.020
711.122
707.891
703.943
698.800
692.177
685.048
681.229
688.267
713.470
762.304
834.123
920.941
1004.555
1062.333
1071.161
1026.887
937.501
824.985
712.310
616.619
546.919
500.921
473.712
458.648
450.883
447.301
446.157
446.624
447.927
449.239
449.641
448.162
444.596
439.320
433.415
428.609
427.422
433.217
450.985
487.746
550.201
644.068
772.421
930.187
1108.435
1284.320
1430.558
1524.229
1545.867
1489.728
1368.641
1199.784
1008.883
822.297
656.143
521.263
421.389
350.975
303.860
273.963
255.381
244.402
239.180
238.187
240.760
246.348
254.097
262.953
271.786
279.325
284.308
286.367
285.936
283.612
280.480
277.804
276.462
276.724
278.736
281.675
284.078
284.566
282.435
277.152
268.589
257.550
244.940
231.770
219.130
208.091
199.107
192.221
187.403
184.331
182.534
181.548
181.011
180.579
179.972
179.104
177.957
176.520
174.868
173.081
171.240
169.444
167.783
166.321
165.049
163.932
162.967
162.219
161.786
161.751
162.028
162.480
162.980
163.487
164.013
164.561
165.084
165.453
165.551
165.288
164.649
163.604
162.153
160.360
158.313
156.084
153.727
151.317
148.898
146.519
144.212
142.017
139.961
138.080
136.420
135.007
133.833
132.851
132.028
131.320
130.752
130.352
130.131
130.092
130.218
130.502
130.928
131.507
132.246
133.165
134.245
135.449
136.762
138.136
139.498
140.757
141.834
142.651
143.174
143.368
143.210
142.695
141.856
140.739
139.359
137.770
136.008
134.125
132.170
130.265
128.553
127.161
126.206
125.758
125.891
126.663
128.192
130.674
134.312
139.307
145.744
153.578
162.736
173.150
184.561
196.515
208.520
220.101
230.713
239.775
246.649
250.752
251.809
249.922
245.237
237.917
228.253
216.816
204.194
190.987
177.719
164.807
152.647
141.636
132.094
124.065
117.534
112.471
108.843
106.508
105.287
104.987
105.425
106.432
107.863
109.565
111.379
113.163
114.736
115.928
116.565
116.504
115.727
114.272
112.182
109.490
106.293
102.724
98.952
95.104
91.340
87.786
84.585
81.858
79.749
78.344
77.697
77.874
78.924
80.900
83.789
87.592
92.289
97.876
104.257
111.284
118.780
126.591
134.522
142.297
149.599
156.081
161.440
165.395
167.857
168.717
167.918
165.363
161.139
155.468
148.613
140.834
132.364
123.481
114.431
105.487
96.893
88.902
81.603
75.052
69.284
64.358
60.302
57.094
54.710
53.114
52.277
52.173
52.813
54.198
56.348
59.263
62.959
67.420
72.660
78.657
85.408
92.890
100.977
109.561
118.496
127.691
136.966
146.134
154.944
163.194
170.631
177.067
182.383
186.455
189.211
190.522
190.336
188.660
185.605
181.249
175.686
168.987
161.331
152.886
143.871
134.458
124.856
115.235
105.712
96.437
87.523
79.118
71.315
64.157
57.662
51.853
46.744
42.357
38.639
35.508
32.887
30.693
28.847
27.284
25.977
24.894
24.009
23.290
22.714
22.242
21.848
21.497
21.156
20.796
20.396
19.962
19.491
18.988
18.453
17.892
17.312
16.728
16.151
15.594
15.068
14.583
14.149
13.768
13.448
13.195
13.013
12.900
12.848
12.848
12.891
12.969
13.071
13.187
13.301
13.400
13.468
13.494
13.467
13.390
13.270
13.112
12.921
12.705
12.475
12.259
12.086
11.983
11.980
12.103
12.386
12.866
13.584
14.574
15.877
17.531
19.558
21.967
24.766
27.968
31.578
35.604
40.014
44.743
49.716
54.875
60.141
65.456
70.711
75.811
80.620
85.022
88.911
92.156
94.697
96.487
97.528
97.767
97.198
95.782
93.552
90.585
86.987
82.855
78.276
73.358
68.185
62.861
57.466
52.098
46.848
41.808
37.055
32.622
28.515
24.747
21.324
18.259
15.559
13.210
11.184
9.448
7.975
6.732
5.691
4.824
4.111
3.532
3.068
2.699
2.405
2.169
1.980
1.829
1.710
1.615
1.536
1.466
1.401
1.338
1.277
1.218
1.159
1.100
1.039
0.977
0.915
0.852
0.790
0.728
0.667
0.608
0.552
0.497
0.446
0.398
0.354
0.315
0.280
0.248
0.221
0.197
0.177
0.159
0.144
0.131
0.121
0.112
0.105
0.099
0.094
0.090
0.087
0.084
0.082
0.080
0.078
0.077
0.075
0.074
0.073
0.072
0.071
0.070
0.068
0.067
0.066
0.065
0.063
0.062
0.061
0.059
0.058
0.056
0.055
0.053
0.051
0.050
0.048
0.047
0.046
0.044
0.043
0.042
0.041
0.040
0.039
0.038
0.038
0.037
0.037
0.037
0.037
0.036
0.036
0.036
0.036
0.035
0.035
0.035
0.034
0.033
0.032
0.032
0.031
0.029
0.028
0.027
0.025
0.024
0.022
0.021
0.019
0.018
0.016
0.015
0.013
0.012
0.011
0.010
0.008
0.007
0.006
0.006
0.005
0.004
0.003
0.003
0.002
0.002
0.002
0.001
0.001
0.001
0.001
0.001
0.000
0.000
0.000
0.000
0.000
0.000
0.000
0.000
0.000
0.000
0.000
0.000
0.000
0.000
0.000
0.000
0.000
0.000
0.000
0.000
0.000
0.000
0.000
-0.000
-0.000
-0.000
-0.000
-0.000
-0.000
-0.000
0.000
0.000
0.000
0.000
0.000
0.000
0.000
0.000
-0.000
-0.000
-0.000
-0.000
-0.000
-0.000
-0.000
-0.000
0.000
0.000
0.000
0.000
0
0
0
0
0
0
0
0
0
0
0
0
0
0
0
0
0
0
0
0
0
0
0
0
0
0
0
0
0
0
0
0
0
0
0
0
0
0
0
0
0
0
0
0
0
0
0
0
0
0
0
0
0
0
0
0
0
0
0
0
0
0
0
0
0
0
0
0
0
0
0
0
0
0
0
0
0
0
0
0
0
0
0
0
0
0
0
0
0
0
0
0
0
0
0
0
0
0
0
0
0
0
0
0
0
0
0
0
0
0
0
0
0
0
0
0
0
0
0
0
0
0
0
0
0
0
0
0
0
0
0
0
0
0
0
0
0
0
0
0
0
0
0
0
0
0
0
0
0
0
0
0
0
0
0
0
0
0
0
0
0
0
0
0
0
0
0
0
0
0
0
0
0
0
0
0
0
0
0
0
0
0
0
0
0
0
0
0
0
0
0
0
0
0
0
0
0
0
0
0
0
0
0
0
0
0
0
0
0
0
0
0
0
0
0
0
0
0
0
0
0
0
0
0
0
0
0
0
0
0
0
0
0
0
0
0
0
0
0
0
0
0
0
0
0
0
0
0
0
0
0
0
0
0
0
0
0
0
0
0
0
0
0
0
0
0
0
0
0
0
0
0
0
0
0
0
0
0
0
0
0
0
0
0
0
0
0
0
0
0
0
0
0
0
0
0
0
0
0
0
0
0
0
0
0
0
0
0
0
0
0
0
0
0
0
0
0
0
0
0
0
0
0
0
0
0
0
0
0
0
0
0
0
0
0
0
0
0
0
0
0
0
0
0
0
0
0
0
0
0
0
0
0
0
0
0
0
0
0
0
0
0
0
0
0
0
0
0
0
0
0
0
0
0
0
0
0
0
0
0
0
0
0
0
0
0
0
0
0
0
0
0
0
0
0
0
0
0
0
0
0
0
0
0
0
0
0
0
0
0
0
0
0
0
0
0
0
0
0
0
0
0
0
0
0
0
0
0
0
0
0
0
0
0
0
0
0
0
0
0
0
0
0
0
0
0
0
0
0
0
0
0
0
0
0
0
0
0
0
0
0
0
0
0
0
0
0
0
0
0
0
0
0
0
0
0
0
0
0
0
0
0
0
0
0
0
0
0
0
0
0
0
0
0
0
0
0
0
0
0
0
0
0
0
0
$MCA_CAL:
3
-1.4656616 2.9313233 0.00000000000000
$ENER_FIT:
-1.4656616 2.9313233 0.00000000000000
$MCA_CAL_DATA:
3
298 872
597 1749
896 2625
$CAMBIO:
Parent file specification: C:\GADRAS-DRF\Temp\152EU_50.0_50.0_iron_1.53_6.5.pcf
Successful read of spectrum: Yes
Error message: None
Warning: None
Information: None
Neutrons: 0
Number of spectral records in the parent file: 1
Record number of this spectrum in the parent file: 1
Date and time of acquisition read successfully from the original file: Yes
Live time read successfully from the original file: Yes
True time read successfully from the original file: Yes
GADRAS Tag character is:  
Version: 130122
Parent file type: Sandia GADRAS PCF
