$SPEC_ID:
152EU,1uC{26,1.53}
$MEAS_TIM:
3600.00 3600.00
$DATE_MEA:
3/9/2018 5:22:25 PM
$DATA:
0 1193
1633.961
1621.225
1497.744
1521.973
1314.396
1138.280
979.441
847.752
753.710
673.108
630.637
613.529
654.064
715.863
704.042
675.140
582.161
512.390
504.782
518.800
547.924
587.103
619.761
640.628
677.404
743.211
815.725
854.313
858.030
881.948
946.342
1024.543
1081.537
1110.781
1139.906
1186.434
1284.184
1519.557
2011.514
2806.762
3622.050
3924.035
3421.971
2437.732
1506.322
936.250
704.507
648.352
659.608
686.937
707.660
713.771
704.176
683.312
661.334
645.027
636.279
633.922
636.132
641.760
648.527
653.747
656.656
657.246
655.702
652.242
648.730
646.427
643.937
640.357
635.448
629.439
621.732
611.696
601.573
596.021
602.203
627.240
676.636
750.008
839.301
925.652
986.461
999.162
959.189
873.870
765.308
656.625
564.731
498.538
455.942
432.090
420.233
415.513
414.875
416.491
419.359
422.686
425.741
427.689
427.634
425.385
421.294
416.466
412.693
412.532
419.355
438.152
475.921
539.349
634.147
763.369
921.876
1100.692
1277.081
1423.915
1518.301
1540.713
1485.345
1364.965
1196.703
1006.291
820.097
654.258
519.634
419.975
349.748
302.806
273.062
254.604
243.721
238.572
237.634
240.251
245.879
253.665
262.554
271.417
278.983
283.991
286.074
285.667
283.366
280.256
277.603
276.284
276.565
278.589
281.533
283.938
284.427
282.297
277.015
268.453
257.414
244.805
231.635
218.995
207.957
198.974
192.088
187.269
184.197
182.401
181.418
180.886
180.460
179.859
178.997
177.857
176.426
174.780
173.000
171.165
169.375
167.719
166.263
164.996
163.885
162.926
162.184
161.755
161.723
162.000
162.453
162.953
163.461
163.987
164.536
165.059
165.429
165.526
165.264
164.625
163.580
162.129
160.336
158.290
156.061
153.703
151.293
148.873
146.495
144.187
141.992
139.936
138.055
136.395
134.983
133.809
132.827
132.005
131.297
130.730
130.330
130.110
130.072
130.199
130.484
130.912
131.491
132.232
133.151
134.232
135.437
136.751
138.126
139.489
140.748
141.826
142.643
143.167
143.361
143.203
142.689
141.850
140.733
139.354
137.765
136.003
134.120
132.166
130.262
128.550
127.157
126.203
125.755
125.889
126.661
128.190
130.672
134.311
139.306
145.743
153.578
162.736
173.149
184.561
196.515
208.520
220.101
230.713
239.775
246.649
250.752
251.809
249.922
245.237
237.917
228.253
216.816
204.194
190.987
177.719
164.807
152.647
141.636
132.094
124.065
117.534
112.471
108.843
106.508
105.287
104.987
105.425
106.432
107.863
109.565
111.379
113.163
114.736
115.928
116.565
116.504
115.727
114.272
112.182
109.490
106.293
102.724
98.952
95.104
91.340
87.786
84.585
81.858
79.749
78.344
77.697
77.874
78.924
80.900
83.789
87.592
92.289
97.876
104.257
111.284
118.780
126.591
134.522
142.297
149.599
156.081
161.440
165.395
167.857
168.717
167.918
165.363
161.139
155.468
148.613
140.834
132.364
123.481
114.431
105.487
96.893
88.902
81.603
75.052
69.284
64.358
60.302
57.094
54.710
53.114
52.277
52.173
52.813
54.198
56.348
59.263
62.959
67.420
72.660
78.657
85.408
92.890
100.977
109.561
118.496
127.691
136.966
146.134
154.944
163.194
170.631
177.067
182.383
186.455
189.211
190.522
190.336
188.660
185.605
181.249
175.686
168.987
161.331
152.886
143.871
134.458
124.856
115.235
105.712
96.437
87.523
79.118
71.315
64.157
57.662
51.853
46.744
42.357
38.639
35.508
32.887
30.693
28.847
27.284
25.977
24.894
24.009
23.290
22.714
22.242
21.848
21.497
21.156
20.796
20.396
19.962
19.491
18.988
18.453
17.892
17.312
16.728
16.151
15.594
15.068
14.583
14.149
13.768
13.448
13.195
13.013
12.900
12.848
12.848
12.891
12.969
13.071
13.187
13.301
13.400
13.468
13.494
13.467
13.390
13.270
13.112
12.921
12.705
12.475
12.259
12.086
11.983
11.980
12.103
12.386
12.866
13.584
14.574
15.877
17.531
19.558
21.967
24.766
27.968
31.578
35.604
40.014
44.743
49.716
54.875
60.141
65.456
70.711
75.811
80.620
85.022
88.911
92.156
94.697
96.487
97.528
97.767
97.198
95.782
93.552
90.585
86.987
82.855
78.276
73.358
68.185
62.861
57.466
52.098
46.848
41.808
37.055
32.622
28.515
24.747
21.324
18.259
15.559
13.210
11.184
9.448
7.975
6.732
5.691
4.824
4.111
3.532
3.068
2.699
2.405
2.169
1.980
1.829
1.710
1.615
1.536
1.466
1.401
1.338
1.277
1.218
1.159
1.100
1.039
0.977
0.915
0.852
0.790
0.728
0.667
0.608
0.552
0.497
0.446
0.398
0.354
0.315
0.280
0.248
0.221
0.197
0.177
0.159
0.144
0.131
0.121
0.112
0.105
0.099
0.094
0.090
0.087
0.084
0.082
0.080
0.078
0.077
0.075
0.074
0.073
0.072
0.071
0.070
0.068
0.067
0.066
0.065
0.063
0.062
0.061
0.059
0.058
0.056
0.055
0.053
0.051
0.050
0.048
0.047
0.046
0.044
0.043
0.042
0.041
0.040
0.039
0.038
0.038
0.037
0.037
0.037
0.037
0.036
0.036
0.036
0.036
0.035
0.035
0.035
0.034
0.033
0.032
0.032
0.031
0.029
0.028
0.027
0.025
0.024
0.022
0.021
0.019
0.018
0.016
0.015
0.013
0.012
0.011
0.010
0.008
0.007
0.006
0.006
0.005
0.004
0.003
0.003
0.002
0.002
0.002
0.001
0.001
0.001
0.001
0.001
0.000
0.000
0.000
0.000
0.000
0.000
0.000
0.000
0.000
0.000
0.000
0.000
0.000
0.000
0.000
0.000
0.000
0.000
0.000
0.000
0.000
0.000
0.000
-0.000
-0.000
-0.000
-0.000
-0.000
-0.000
-0.000
0.000
0.000
0.000
0.000
0.000
0.000
0.000
0.000
-0.000
-0.000
-0.000
-0.000
-0.000
-0.000
-0.000
-0.000
0.000
0.000
0.000
0.000
0
0
0
0
0
0
0
0
0
0
0
0
0
0
0
0
0
0
0
0
0
0
0
0
0
0
0
0
0
0
0
0
0
0
0
0
0
0
0
0
0
0
0
0
0
0
0
0
0
0
0
0
0
0
0
0
0
0
0
0
0
0
0
0
0
0
0
0
0
0
0
0
0
0
0
0
0
0
0
0
0
0
0
0
0
0
0
0
0
0
0
0
0
0
0
0
0
0
0
0
0
0
0
0
0
0
0
0
0
0
0
0
0
0
0
0
0
0
0
0
0
0
0
0
0
0
0
0
0
0
0
0
0
0
0
0
0
0
0
0
0
0
0
0
0
0
0
0
0
0
0
0
0
0
0
0
0
0
0
0
0
0
0
0
0
0
0
0
0
0
0
0
0
0
0
0
0
0
0
0
0
0
0
0
0
0
0
0
0
0
0
0
0
0
0
0
0
0
0
0
0
0
0
0
0
0
0
0
0
0
0
0
0
0
0
0
0
0
0
0
0
0
0
0
0
0
0
0
0
0
0
0
0
0
0
0
0
0
0
0
0
0
0
0
0
0
0
0
0
0
0
0
0
0
0
0
0
0
0
0
0
0
0
0
0
0
0
0
0
0
0
0
0
0
0
0
0
0
0
0
0
0
0
0
0
0
0
0
0
0
0
0
0
0
0
0
0
0
0
0
0
0
0
0
0
0
0
0
0
0
0
0
0
0
0
0
0
0
0
0
0
0
0
0
0
0
0
0
0
0
0
0
0
0
0
0
0
0
0
0
0
0
0
0
0
0
0
0
0
0
0
0
0
0
0
0
0
0
0
0
0
0
0
0
0
0
0
0
0
0
0
0
0
0
0
0
0
0
0
0
0
0
0
0
0
0
0
0
0
0
0
0
0
0
0
0
0
0
0
0
0
0
0
0
0
0
0
0
0
0
0
0
0
0
0
0
0
0
0
0
0
0
0
0
0
0
0
0
0
0
0
0
0
0
0
0
0
0
0
0
0
0
0
0
0
0
0
0
0
0
0
0
0
0
0
0
0
0
0
0
0
0
0
0
0
0
0
0
0
0
0
0
0
0
0
0
0
0
0
0
0
0
0
0
0
0
0
0
0
0
0
0
0
0
0
0
0
0
0
0
0
0
0
0
0
$MCA_CAL:
3
-1.4656616 2.9313233 0.00000000000000
$ENER_FIT:
-1.4656616 2.9313233 0.00000000000000
$MCA_CAL_DATA:
3
298 872
597 1749
896 2625
$CAMBIO:
Parent file specification: C:\GADRAS-DRF\Temp\152EU_75.0_50.0_iron_1.53_6.5.pcf
Successful read of spectrum: Yes
Error message: None
Warning: None
Information: None
Neutrons: 0
Number of spectral records in the parent file: 1
Record number of this spectrum in the parent file: 1
Date and time of acquisition read successfully from the original file: Yes
Live time read successfully from the original file: Yes
True time read successfully from the original file: Yes
GADRAS Tag character is:  
Version: 130122
Parent file type: Sandia GADRAS PCF
