$SPEC_ID:
152EU,1uC{13,4.18}
$MEAS_TIM:
3600.00 3600.00
$DATE_MEA:
3/9/2018 5:22:25 PM
$DATA:
0 1193
1152.044
1156.540
1209.784
1741.679
1477.352
1152.379
950.069
765.180
693.782
668.110
834.415
1471.106
2765.240
3629.142
3053.338
2039.818
1269.901
839.005
701.967
724.925
785.846
854.620
917.612
969.701
1025.720
1087.924
1141.466
1190.016
1243.820
1294.574
1345.545
1402.002
1446.932
1470.332
1500.975
1565.056
1704.064
1940.931
2263.482
2628.736
2909.017
2950.250
2673.150
2202.067
1687.360
1251.943
965.889
818.012
756.358
736.048
730.551
728.337
724.203
716.895
708.865
702.249
698.395
696.887
696.873
697.918
699.259
699.661
698.714
696.857
693.939
689.398
683.740
678.081
672.349
665.863
658.672
651.268
644.476
639.377
638.018
643.252
656.837
678.930
708.564
742.457
776.503
804.255
818.974
817.212
797.638
761.702
714.876
662.904
611.428
565.867
528.829
500.474
480.526
467.653
460.301
456.849
455.565
455.007
454.691
454.423
454.225
454.469
455.661
459.231
467.178
481.360
503.187
533.974
574.836
626.608
689.964
762.909
839.880
915.149
981.820
1032.105
1058.432
1058.178
1032.413
982.435
912.607
829.292
738.960
647.628
561.063
484.845
421.517
370.518
331.111
302.193
282.028
268.862
261.046
257.332
256.512
257.447
259.431
261.886
264.259
266.236
267.715
268.582
268.820
268.556
267.962
267.173
266.166
264.837
263.067
260.759
257.786
254.055
249.471
244.089
238.075
231.575
224.779
217.929
211.302
205.151
199.649
194.813
190.674
187.250
184.459
182.178
180.267
178.609
177.118
175.736
174.394
173.049
171.705
170.378
169.097
167.879
166.728
165.654
164.661
163.769
162.990
162.347
161.875
161.571
161.386
161.260
161.128
160.935
160.658
160.299
159.839
159.272
158.580
157.750
156.754
155.575
154.217
152.722
151.118
149.430
147.709
145.964
144.221
142.500
140.832
139.228
137.709
136.304
135.023
133.882
132.878
132.021
131.292
130.700
130.247
129.923
129.730
129.662
129.723
129.891
130.155
130.497
130.911
131.373
131.847
132.325
132.771
133.163
133.478
133.708
133.829
133.827
133.686
133.421
133.032
132.530
131.936
131.250
130.523
129.793
129.112
128.516
128.055
127.809
127.840
128.226
129.036
130.337
132.138
134.454
137.297
140.677
144.587
148.946
153.671
158.660
163.824
169.054
174.195
179.048
183.426
187.135
190.008
191.928
192.872
192.818
191.722
189.555
186.361
182.262
177.404
171.929
165.989
159.719
153.282
146.841
140.559
134.598
129.116
124.202
119.844
116.036
112.767
110.036
107.820
106.066
104.707
103.682
102.922
102.353
101.920
101.546
101.162
100.697
100.087
99.260
98.215
96.998
95.647
94.207
92.711
91.222
89.772
88.430
87.243
86.273
85.564
85.177
85.132
85.443
86.142
87.239
88.764
90.705
93.027
95.661
98.559
101.646
104.880
108.181
111.464
114.618
117.547
120.161
122.341
124.020
125.150
125.724
125.700
125.075
123.813
121.916
119.425
116.427
113.009
109.234
105.198
100.969
96.643
92.296
88.029
83.924
80.076
76.564
73.465
70.807
68.613
66.922
65.754
65.145
65.110
65.647
66.726
68.337
70.449
73.053
76.113
79.614
83.476
87.642
92.063
96.665
101.401
106.189
110.974
115.638
120.111
124.285
128.090
131.416
134.208
136.437
138.062
139.081
139.448
139.160
138.173
136.517
134.237
131.391
128.014
124.180
119.921
115.309
110.385
105.229
99.906
94.467
88.994
83.538
78.174
72.935
67.865
62.997
58.368
54.007
49.959
46.248
42.871
39.810
37.044
34.554
32.316
30.316
28.527
26.938
25.523
24.274
23.165
22.184
21.310
20.526
19.822
19.185
18.611
18.087
17.606
17.158
16.736
16.332
15.948
15.583
15.239
14.915
14.611
14.329
14.066
13.826
13.607
13.409
13.232
13.077
12.942
12.829
12.736
12.665
12.616
12.587
12.580
12.593
12.628
12.685
12.772
12.897
13.068
13.293
13.580
13.937
14.372
14.894
15.515
16.244
17.090
18.066
19.179
20.443
21.864
23.441
25.167
27.035
29.035
31.159
33.404
35.757
38.210
40.735
43.301
45.871
48.421
50.911
53.318
55.599
57.739
59.699
61.454
62.986
64.258
65.257
65.941
66.305
66.314
65.995
65.352
64.415
63.189
61.698
59.960
57.984
55.800
53.429
50.913
48.276
45.556
42.785
39.997
37.218
34.486
31.812
29.214
26.702
24.292
21.998
19.830
17.804
15.932
14.214
12.643
11.214
9.918
8.749
7.700
6.765
5.936
5.206
4.567
4.011
3.530
3.115
2.758
2.450
2.185
1.953
1.751
1.577
1.426
1.296
1.183
1.086
1.000
0.923
0.852
0.788
0.728
0.674
0.625
0.579
0.536
0.496
0.459
0.424
0.390
0.359
0.330
0.302
0.277
0.254
0.233
0.213
0.195
0.179
0.165
0.152
0.140
0.130
0.120
0.112
0.105
0.098
0.093
0.087
0.083
0.079
0.076
0.073
0.070
0.067
0.065
0.063
0.061
0.060
0.058
0.056
0.055
0.054
0.052
0.051
0.050
0.049
0.048
0.047
0.045
0.044
0.043
0.042
0.041
0.041
0.040
0.039
0.038
0.037
0.037
0.036
0.035
0.034
0.034
0.033
0.032
0.032
0.031
0.030
0.029
0.029
0.028
0.027
0.027
0.026
0.025
0.024
0.023
0.022
0.022
0.021
0.020
0.019
0.018
0.017
0.016
0.015
0.014
0.013
0.013
0.012
0.011
0.010
0.009
0.009
0.008
0.007
0.006
0.006
0.005
0.005
0.004
0.004
0.003
0.003
0.003
0.002
0.002
0.002
0.002
0.001
0.001
0.001
0.001
0.001
0.001
0.001
0.000
0.000
0.000
0.000
0.000
0.000
0.000
0.000
0.000
0.000
0.000
0.000
0.000
0.000
0.000
0.000
0.000
0.000
0.000
0.000
0.000
0.000
0.000
0.000
0.000
0.000
0.000
0.000
0.000
0.000
0.000
-0.000
-0.000
-0.000
-0.000
-0.000
-0.000
-0.000
-0.000
-0.000
-0.000
0.000
0.000
0.000
0.000
0.000
0.000
0.000
0.000
0.000
0.000
0.000
-0.000
-0.000
-0.000
-0.000
-0.000
-0.000
-0.000
-0.000
-0.000
-0.000
0.000
0.000
0.000
0.000
0.000
0.000
0
0
0
0
0
0
0
0
0
0
0
0
0
0
0
0
0
0
0
0
0
0
0
0
0
0
0
0
0
0
0
0
0
0
0
0
0
0
0
0
0
0
0
0
0
0
0
0
0
0
0
0
0
0
0
0
0
0
0
0
0
0
0
0
0
0
0
0
0
0
0
0
0
0
0
0
0
0
0
0
0
0
0
0
0
0
0
0
0
0
0
0
0
0
0
0
0
0
0
0
0
0
0
0
0
0
0
0
0
0
0
0
0
0
0
0
0
0
0
0
0
0
0
0
0
0
0
0
0
0
0
0
0
0
0
0
0
0
0
0
0
0
0
0
0
0
0
0
0
0
0
0
0
0
0
0
0
0
0
0
0
0
0
0
0
0
0
0
0
0
0
0
0
0
0
0
0
0
0
0
0
0
0
0
0
0
0
0
0
0
0
0
0
0
0
0
0
0
0
0
0
0
0
0
0
0
0
0
0
0
0
0
0
0
0
0
0
0
0
0
0
0
0
0
0
0
0
0
0
0
0
0
0
0
0
0
0
0
0
0
0
0
0
0
0
0
0
0
0
0
0
0
0
0
0
0
0
0
0
0
0
0
0
0
0
0
0
0
0
0
0
0
0
0
0
0
0
0
0
0
0
0
0
0
0
0
0
0
0
0
0
0
0
0
0
0
0
0
0
0
0
0
0
0
0
0
0
0
0
0
0
0
0
0
0
0
0
0
0
0
0
0
0
0
0
0
0
0
0
0
0
0
0
0
0
0
0
0
0
0
0
0
0
0
0
0
0
0
0
0
0
0
0
0
0
0
0
0
0
0
0
0
0
0
0
0
0
0
0
0
0
0
0
0
0
0
0
0
0
0
0
0
0
0
0
0
0
0
0
0
0
0
0
0
0
0
0
0
0
0
0
0
0
0
0
0
0
0
0
0
0
0
0
0
0
0
0
0
0
0
0
0
0
0
0
0
0
0
0
0
0
0
0
0
0
0
0
0
0
0
0
0
0
0
0
0
0
0
0
0
0
0
0
0
0
0
0
0
0
0
0
0
0
0
0
0
0
0
0
0
0
0
0
0
0
0
0
0
$MCA_CAL:
3
-1.4656616 2.9313233 0.00000000000000
$ENER_FIT:
-1.4656616 2.9313233 0.00000000000000
$MCA_CAL_DATA:
3
298 872
597 1749
896 2625
$CAMBIO:
Parent file specification: C:\GADRAS-DRF\Temp\152EU_125.0_50.0_alum_4.18_8.5.pcf
Successful read of spectrum: Yes
Error message: None
Warning: None
Information: None
Neutrons: 0
Number of spectral records in the parent file: 1
Record number of this spectrum in the parent file: 1
Date and time of acquisition read successfully from the original file: Yes
Live time read successfully from the original file: Yes
True time read successfully from the original file: Yes
GADRAS Tag character is:  
Version: 130122
Parent file type: Sandia GADRAS PCF
