$SPEC_ID:
152EU,1uC{13,7.49}
$MEAS_TIM:
3600.00 3600.00
$DATE_MEA:
3/9/2018 5:22:25 PM
$DATA:
0 1193
856.588
824.468
775.904
1233.391
1061.649
908.114
776.764
662.729
594.646
538.647
525.364
588.967
874.092
1162.895
1040.219
903.659
748.202
680.564
728.615
813.064
885.925
960.919
1027.553
1070.256
1117.660
1172.195
1222.280
1263.788
1303.961
1352.528
1406.771
1461.889
1498.899
1502.683
1503.840
1513.233
1549.661
1653.010
1854.052
2202.101
2559.384
2648.837
2313.021
1764.734
1268.008
962.701
836.006
800.188
795.555
798.324
797.558
792.122
783.327
772.192
761.672
753.594
747.839
743.647
740.905
739.360
738.079
735.815
731.856
727.075
722.051
715.370
707.994
701.184
694.283
686.747
678.501
670.034
660.566
649.003
637.386
628.993
627.814
637.903
662.044
697.947
740.260
780.312
806.657
807.107
780.049
730.206
668.335
606.070
553.573
515.998
491.120
475.812
466.739
461.852
460.188
460.487
461.259
461.902
462.319
462.152
460.840
458.260
454.627
450.629
447.385
446.052
447.889
455.627
473.847
506.633
556.762
625.519
709.769
804.337
896.606
971.603
1016.577
1020.592
980.868
905.669
805.318
693.544
584.290
486.760
407.708
349.397
308.221
280.286
262.132
250.502
243.308
239.471
238.082
238.755
241.163
244.816
249.125
253.431
256.927
258.801
258.868
257.500
255.145
252.381
249.856
248.046
247.182
247.430
248.279
248.784
248.062
245.742
241.583
235.553
228.111
219.764
211.108
202.802
195.505
189.482
184.745
181.259
178.835
177.202
176.084
175.257
174.495
173.621
172.583
171.384
170.019
168.533
166.969
165.371
163.800
162.311
160.944
159.699
158.557
157.527
156.641
155.957
155.526
155.287
155.153
155.042
154.929
154.825
154.734
154.628
154.417
154.022
153.388
152.521
151.411
150.071
148.539
146.872
145.111
143.283
141.438
139.596
137.787
136.026
134.342
132.746
131.263
129.926
128.750
127.729
126.832
126.039
125.315
124.680
124.156
123.749
123.463
123.282
123.205
123.217
123.325
123.536
123.863
124.293
124.796
125.366
125.965
126.553
127.077
127.494
127.755
127.838
127.715
127.372
126.802
126.026
125.074
123.954
122.701
121.334
119.888
118.392
116.927
115.591
114.467
113.632
113.125
112.989
113.251
113.989
115.340
117.445
120.445
124.402
129.289
135.060
141.671
148.945
156.569
164.200
171.510
178.138
183.714
187.830
190.117
190.403
188.759
185.286
180.096
173.381
165.510
156.865
147.835
138.763
129.935
121.622
114.097
107.579
102.092
97.617
94.126
91.588
89.909
88.972
88.651
88.825
89.382
90.226
91.251
92.349
93.427
94.357
95.024
95.307
95.108
94.418
93.267
91.692
89.716
87.409
84.856
82.175
79.444
76.772
74.247
71.968
70.017
68.496
67.464
66.953
67.010
67.666
68.956
70.865
73.394
76.522
80.244
84.494
89.178
94.181
99.403
104.715
109.925
114.811
119.127
122.659
125.212
126.728
127.136
126.402
124.465
121.387
117.319
112.445
106.944
100.974
94.728
88.377
82.110
76.094
70.505
65.403
60.824
56.789
53.337
50.486
48.221
46.528
45.383
44.769
44.668
45.089
46.030
47.505
49.512
52.063
55.144
58.765
62.909
67.572
72.738
78.320
84.245
90.412
96.761
103.166
109.495
115.570
121.250
126.355
130.754
134.363
137.094
138.901
139.692
139.431
138.123
135.843
132.645
128.593
123.734
118.198
112.105
105.614
98.849
91.964
85.077
78.269
71.645
65.281
59.280
53.704
48.587
43.941
39.782
36.122
32.978
30.309
28.060
26.174
24.591
23.255
22.118
21.164
20.369
19.715
19.179
18.746
18.388
18.085
17.813
17.548
17.270
16.961
16.629
16.270
15.889
15.486
15.066
14.632
14.197
13.767
13.353
12.961
12.600
12.275
11.988
11.745
11.550
11.407
11.313
11.264
11.251
11.270
11.314
11.375
11.446
11.515
11.574
11.610
11.616
11.582
11.512
11.412
11.284
11.133
10.964
10.786
10.619
10.485
10.403
10.395
10.480
10.684
11.032
11.553
12.273
13.221
14.422
15.895
17.645
19.678
22.004
24.625
27.549
30.753
34.189
37.803
41.553
45.382
49.248
53.072
56.782
60.278
63.473
66.290
68.631
70.452
71.718
72.434
72.558
72.089
70.997
69.309
67.080
64.389
61.308
57.899
54.245
50.405
46.457
42.459
38.486
34.602
30.877
27.365
24.093
21.063
18.284
15.760
13.500
11.508
9.774
8.277
6.995
5.906
4.987
4.217
3.577
3.052
2.625
2.284
2.013
1.797
1.623
1.483
1.371
1.282
1.211
1.152
1.100
1.050
1.003
0.958
0.913
0.869
0.825
0.779
0.733
0.686
0.639
0.592
0.546
0.501
0.457
0.414
0.373
0.335
0.299
0.266
0.237
0.211
0.187
0.167
0.149
0.134
0.120
0.109
0.100
0.092
0.085
0.080
0.076
0.072
0.069
0.066
0.064
0.063
0.061
0.060
0.059
0.058
0.057
0.056
0.055
0.054
0.053
0.052
0.051
0.051
0.050
0.049
0.048
0.046
0.045
0.044
0.043
0.042
0.041
0.039
0.038
0.037
0.036
0.035
0.034
0.033
0.032
0.031
0.031
0.030
0.030
0.029
0.029
0.028
0.028
0.028
0.028
0.028
0.028
0.027
0.027
0.027
0.026
0.026
0.025
0.025
0.024
0.023
0.022
0.022
0.020
0.019
0.018
0.017
0.016
0.015
0.014
0.012
0.011
0.010
0.009
0.008
0.007
0.006
0.006
0.005
0.004
0.004
0.003
0.003
0.002
0.002
0.002
0.001
0.001
0.001
0.001
0.001
0.000
0.000
0.000
0.000
0.000
0.000
0.000
0.000
0.000
0.000
0.000
0.000
0.000
0.000
0.000
0.000
0.000
0.000
0.000
0.000
0.000
0.000
0.000
0.000
-0.000
-0.000
-0.000
-0.000
-0.000
-0.000
-0.000
0.000
0.000
0.000
0.000
0.000
0.000
0.000
0.000
-0.000
-0.000
-0.000
-0.000
-0.000
-0.000
-0.000
-0.000
0.000
0.000
0.000
0.000
0
0
0
0
0
0
0
0
0
0
0
0
0
0
0
0
0
0
0
0
0
0
0
0
0
0
0
0
0
0
0
0
0
0
0
0
0
0
0
0
0
0
0
0
0
0
0
0
0
0
0
0
0
0
0
0
0
0
0
0
0
0
0
0
0
0
0
0
0
0
0
0
0
0
0
0
0
0
0
0
0
0
0
0
0
0
0
0
0
0
0
0
0
0
0
0
0
0
0
0
0
0
0
0
0
0
0
0
0
0
0
0
0
0
0
0
0
0
0
0
0
0
0
0
0
0
0
0
0
0
0
0
0
0
0
0
0
0
0
0
0
0
0
0
0
0
0
0
0
0
0
0
0
0
0
0
0
0
0
0
0
0
0
0
0
0
0
0
0
0
0
0
0
0
0
0
0
0
0
0
0
0
0
0
0
0
0
0
0
0
0
0
0
0
0
0
0
0
0
0
0
0
0
0
0
0
0
0
0
0
0
0
0
0
0
0
0
0
0
0
0
0
0
0
0
0
0
0
0
0
0
0
0
0
0
0
0
0
0
0
0
0
0
0
0
0
0
0
0
0
0
0
0
0
0
0
0
0
0
0
0
0
0
0
0
0
0
0
0
0
0
0
0
0
0
0
0
0
0
0
0
0
0
0
0
0
0
0
0
0
0
0
0
0
0
0
0
0
0
0
0
0
0
0
0
0
0
0
0
0
0
0
0
0
0
0
0
0
0
0
0
0
0
0
0
0
0
0
0
0
0
0
0
0
0
0
0
0
0
0
0
0
0
0
0
0
0
0
0
0
0
0
0
0
0
0
0
0
0
0
0
0
0
0
0
0
0
0
0
0
0
0
0
0
0
0
0
0
0
0
0
0
0
0
0
0
0
0
0
0
0
0
0
0
0
0
0
0
0
0
0
0
0
0
0
0
0
0
0
0
0
0
0
0
0
0
0
0
0
0
0
0
0
0
0
0
0
0
0
0
0
0
0
0
0
0
0
0
0
0
0
0
0
0
0
0
0
0
0
0
0
0
0
0
0
0
0
0
0
0
0
0
0
0
0
0
0
0
0
0
0
0
0
0
0
0
0
0
0
0
0
0
0
0
0
0
0
0
0
0
0
0
0
0
0
0
0
0
0
0
0
0
0
0
0
$MCA_CAL:
3
-1.4656616 2.9313233 0.00000000000000
$ENER_FIT:
-1.4656616 2.9313233 0.00000000000000
$MCA_CAL_DATA:
3
298 872
597 1749
896 2625
$CAMBIO:
Parent file specification: C:\GADRAS-DRF\Temp\152EU_150.0_50.0_alum_7.49_6.5.pcf
Successful read of spectrum: Yes
Error message: None
Warning: None
Information: None
Neutrons: 0
Number of spectral records in the parent file: 1
Record number of this spectrum in the parent file: 1
Date and time of acquisition read successfully from the original file: Yes
Live time read successfully from the original file: Yes
True time read successfully from the original file: Yes
GADRAS Tag character is:  
Version: 130122
Parent file type: Sandia GADRAS PCF
