$SPEC_ID:
152EU,1uC{13,1.82}
$MEAS_TIM:
3600.00 3600.00
$DATE_MEA:
3/9/2018 5:22:25 PM
$DATA:
0 1193
1631.593
1749.324
2081.234
3115.503
2543.154
1658.789
1301.515
966.094
950.358
1027.335
1595.877
3641.352
8511.393
11854.532
8598.660
4614.262
2296.987
1030.734
658.329
644.618
693.716
753.059
804.633
853.758
916.646
1000.150
1078.284
1131.418
1161.376
1192.309
1241.137
1302.512
1352.239
1381.637
1413.348
1478.571
1631.451
1946.974
2480.807
3174.790
3783.774
3955.938
3536.905
2720.711
1860.647
1229.833
882.399
743.506
714.368
723.113
735.629
740.267
735.117
719.862
701.196
686.213
676.985
673.053
673.117
676.305
680.596
683.603
685.013
684.889
683.076
679.942
676.206
672.501
668.913
664.385
658.381
651.319
643.723
636.324
631.846
634.238
648.140
677.711
722.991
781.309
843.729
898.961
934.001
937.182
907.241
847.560
769.115
685.634
607.689
543.713
496.587
464.698
445.465
435.255
430.811
429.939
430.738
432.213
433.613
434.414
434.197
433.027
431.747
431.461
434.351
442.940
460.838
492.675
542.518
612.654
704.701
816.161
941.054
1071.404
1192.090
1286.726
1343.373
1355.091
1316.958
1235.240
1120.729
985.060
842.226
706.233
585.982
485.013
406.174
348.071
307.067
279.648
262.770
253.559
249.534
249.421
252.129
256.639
262.096
267.645
272.603
276.538
279.057
280.089
280.075
279.471
278.681
277.969
277.596
277.563
277.375
276.515
274.510
271.103
266.044
259.204
250.946
241.719
231.999
222.300
213.175
205.139
198.422
192.981
188.785
185.715
183.499
181.865
180.547
179.399
178.290
177.109
175.805
174.403
172.924
171.390
169.865
168.405
167.063
165.871
164.838
163.988
163.323
162.858
162.621
162.615
162.808
163.110
163.428
163.681
163.833
163.884
163.816
163.607
163.200
162.542
161.561
160.253
158.670
156.886
154.953
152.909
150.810
148.677
146.549
144.458
142.449
140.548
138.786
137.190
135.756
134.497
133.417
132.525
131.800
131.247
130.867
130.649
130.593
130.695
130.959
131.369
131.917
132.588
133.381
134.266
135.204
136.181
137.154
138.084
138.914
139.599
140.075
140.313
140.320
140.120
139.719
139.130
138.367
137.413
136.282
134.972
133.567
132.184
130.948
129.994
129.424
129.314
129.735
130.766
132.471
134.922
138.189
142.340
147.446
153.501
160.385
167.942
176.031
184.489
193.052
201.355
209.052
215.785
221.260
225.260
227.635
228.231
226.873
223.569
218.565
212.094
204.409
195.756
186.436
176.752
167.025
157.571
148.683
140.522
133.189
126.801
121.453
117.218
114.002
111.685
110.131
109.213
108.804
108.796
109.074
109.518
110.030
110.492
110.804
110.864
110.579
109.840
108.589
106.896
104.848
102.540
100.053
97.499
94.946
92.500
90.241
88.270
86.660
85.499
84.852
84.781
85.366
86.664
88.687
91.380
94.715
98.639
103.119
108.059
113.334
118.785
124.280
129.659
134.779
139.486
143.596
146.962
149.405
150.781
151.024
150.199
148.333
145.486
141.683
137.008
131.623
125.672
119.340
112.780
106.167
99.622
93.281
87.251
81.660
76.615
72.226
68.520
65.510
63.220
61.660
60.850
60.790
61.475
62.882
65.010
67.835
71.353
75.513
80.287
85.605
91.420
97.691
104.345
111.288
118.367
125.490
132.493
139.273
145.683
151.627
156.960
161.583
165.378
168.207
170.011
170.764
170.509
169.234
166.975
163.741
159.581
154.579
148.878
142.566
135.785
128.624
121.214
113.656
106.036
98.475
91.057
83.898
77.072
70.629
64.595
58.999
53.863
49.224
45.097
41.459
38.269
35.483
33.061
30.956
29.132
27.549
26.186
25.009
24.000
23.123
22.356
21.674
21.063
20.509
19.994
19.509
19.034
18.561
18.086
17.616
17.151
16.697
16.257
15.834
15.432
15.052
14.702
14.383
14.100
13.855
13.653
13.489
13.359
13.258
13.183
13.128
13.089
13.064
13.046
13.035
13.026
13.018
13.007
12.990
12.976
12.978
13.005
13.072
13.190
13.371
13.631
13.991
14.474
15.101
15.899
16.887
18.092
19.529
21.205
23.125
25.295
27.719
30.399
33.346
36.539
39.942
43.513
47.212
50.990
54.815
58.635
62.408
66.055
69.531
72.755
75.663
78.201
80.291
81.907
83.025
83.660
83.781
83.399
82.492
81.068
79.131
76.745
73.967
70.843
67.443
63.812
60.016
56.101
52.121
48.122
44.154
40.258
36.490
32.892
29.507
26.341
23.399
20.679
18.180
15.907
13.858
12.035
10.425
9.013
7.783
6.718
5.801
5.017
4.348
3.781
3.304
2.906
2.578
2.306
2.082
1.894
1.732
1.592
1.470
1.364
1.272
1.189
1.115
1.045
0.978
0.915
0.854
0.796
0.740
0.687
0.635
0.587
0.540
0.496
0.453
0.414
0.377
0.342
0.311
0.281
0.255
0.231
0.210
0.190
0.173
0.158
0.145
0.133
0.123
0.114
0.107
0.101
0.096
0.091
0.087
0.084
0.081
0.078
0.076
0.074
0.072
0.070
0.069
0.067
0.066
0.065
0.063
0.062
0.060
0.059
0.058
0.056
0.055
0.054
0.052
0.051
0.050
0.049
0.047
0.046
0.045
0.044
0.043
0.042
0.041
0.040
0.040
0.039
0.038
0.038
0.037
0.036
0.036
0.035
0.035
0.034
0.033
0.033
0.032
0.031
0.031
0.030
0.029
0.028
0.027
0.026
0.025
0.024
0.023
0.021
0.020
0.019
0.018
0.017
0.015
0.014
0.013
0.012
0.011
0.010
0.009
0.008
0.007
0.006
0.006
0.005
0.004
0.004
0.003
0.003
0.003
0.002
0.002
0.002
0.001
0.001
0.001
0.001
0.001
0.001
0.000
0.000
0.000
0.000
0.000
0.000
0.000
0.000
0.000
0.000
0.000
0.000
0.000
0.000
0.000
0.000
0.000
0.000
0.000
0.000
0.000
0.000
0.000
-0.000
-0.000
-0.000
-0.000
-0.000
-0.000
-0.000
-0.000
-0.000
0.000
0.000
0.000
0.000
0.000
0.000
0.000
0.000
0.000
0.000
0.000
0.000
0.000
0.000
0
0
0
0
0
0
0
0
0
0
0
0
0
0
0
0
0
0
0
0
0
0
0
0
0
0
0
0
0
0
0
0
0
0
0
0
0
0
0
0
0
0
0
0
0
0
0
0
0
0
0
0
0
0
0
0
0
0
0
0
0
0
0
0
0
0
0
0
0
0
0
0
0
0
0
0
0
0
0
0
0
0
0
0
0
0
0
0
0
0
0
0
0
0
0
0
0
0
0
0
0
0
0
0
0
0
0
0
0
0
0
0
0
0
0
0
0
0
0
0
0
0
0
0
0
0
0
0
0
0
0
0
0
0
0
0
0
0
0
0
0
0
0
0
0
0
0
0
0
0
0
0
0
0
0
0
0
0
0
0
0
0
0
0
0
0
0
0
0
0
0
0
0
0
0
0
0
0
0
0
0
0
0
0
0
0
0
0
0
0
0
0
0
0
0
0
0
0
0
0
0
0
0
0
0
0
0
0
0
0
0
0
0
0
0
0
0
0
0
0
0
0
0
0
0
0
0
0
0
0
0
0
0
0
0
0
0
0
0
0
0
0
0
0
0
0
0
0
0
0
0
0
0
0
0
0
0
0
0
0
0
0
0
0
0
0
0
0
0
0
0
0
0
0
0
0
0
0
0
0
0
0
0
0
0
0
0
0
0
0
0
0
0
0
0
0
0
0
0
0
0
0
0
0
0
0
0
0
0
0
0
0
0
0
0
0
0
0
0
0
0
0
0
0
0
0
0
0
0
0
0
0
0
0
0
0
0
0
0
0
0
0
0
0
0
0
0
0
0
0
0
0
0
0
0
0
0
0
0
0
0
0
0
0
0
0
0
0
0
0
0
0
0
0
0
0
0
0
0
0
0
0
0
0
0
0
0
0
0
0
0
0
0
0
0
0
0
0
0
0
0
0
0
0
0
0
0
0
0
0
0
0
0
0
0
0
0
0
0
0
0
0
0
0
0
0
0
0
0
0
0
0
0
0
0
0
0
0
0
0
0
0
0
0
0
0
0
0
0
0
0
0
0
0
0
0
0
0
0
0
0
0
0
0
0
0
0
0
0
0
0
0
0
0
0
0
0
0
0
0
0
0
0
0
0
0
0
0
0
0
0
0
0
0
0
0
0
0
0
0
0
0
0
0
$MCA_CAL:
3
-1.4656616 2.9313233 0.00000000000000
$ENER_FIT:
-1.4656616 2.9313233 0.00000000000000
$MCA_CAL_DATA:
3
298 872
597 1749
896 2625
$CAMBIO:
Parent file specification: C:\GADRAS-DRF\Temp\152EU_75.0_50.0_alum_1.82_7.5.pcf
Successful read of spectrum: Yes
Error message: None
Warning: None
Information: None
Neutrons: 0
Number of spectral records in the parent file: 1
Record number of this spectrum in the parent file: 1
Date and time of acquisition read successfully from the original file: Yes
Live time read successfully from the original file: Yes
True time read successfully from the original file: Yes
GADRAS Tag character is:  
Version: 130122
Parent file type: Sandia GADRAS PCF
