$SPEC_ID:
152EU,1uC{26,1.53}
$MEAS_TIM:
3600.00 3600.00
$DATE_MEA:
3/9/2018 5:22:25 PM
$DATA:
0 1193
1489.516
1459.176
1353.822
1382.047
1191.326
1037.273
897.042
777.729
691.447
618.054
580.409
570.104
608.825
660.903
656.976
617.490
536.662
470.016
454.290
464.483
488.216
518.611
543.399
568.206
600.356
647.798
698.291
735.772
764.054
809.429
878.766
953.697
1012.751
1048.666
1084.746
1150.846
1297.071
1591.944
2086.033
2725.760
3289.372
3462.737
3106.835
2391.011
1629.114
1067.686
758.469
634.359
606.705
611.902
619.400
620.228
614.595
603.053
591.081
583.750
581.417
583.154
587.832
594.791
602.322
608.313
612.289
614.144
613.734
611.443
608.020
604.247
600.391
595.529
589.268
582.177
574.872
568.140
564.939
569.514
586.393
619.507
668.978
732.210
799.746
859.688
898.926
905.793
878.782
821.009
743.612
660.658
583.036
519.476
472.982
441.931
423.698
414.563
411.186
411.301
412.954
415.166
417.223
418.618
418.943
418.266
417.444
417.602
421.028
430.366
449.320
482.592
534.332
606.944
702.159
817.396
946.430
1081.020
1205.725
1303.829
1363.083
1376.256
1338.197
1255.297
1138.619
1000.100
854.114
715.061
592.087
488.837
408.243
348.876
307.003
279.016
261.813
252.466
248.446
248.442
251.330
256.062
261.760
267.554
272.745
276.890
279.591
280.769
280.875
280.372
279.669
279.040
278.751
278.805
278.699
277.905
275.939
272.534
267.428
260.488
252.087
242.687
232.780
222.892
213.591
205.404
198.566
193.034
188.774
185.668
183.436
181.800
180.489
179.352
178.257
177.087
175.790
174.393
172.915
171.382
169.859
168.401
167.064
165.881
164.860
164.026
163.380
162.939
162.731
162.759
162.991
163.334
163.695
163.989
164.179
164.267
164.232
164.056
163.675
163.037
162.068
160.761
159.172
157.374
155.422
153.356
151.230
149.070
146.915
144.798
142.763
140.839
139.059
137.447
136.002
134.736
133.653
132.762
132.042
131.497
131.129
130.926
130.888
131.012
131.302
131.741
132.322
133.030
133.862
134.788
135.769
136.789
137.807
138.781
139.653
140.375
140.883
141.146
141.172
140.986
140.593
140.007
139.242
138.283
137.142
135.818
134.397
132.998
131.750
130.789
130.220
130.123
130.570
131.642
133.405
135.933
139.296
143.565
148.810
155.026
162.090
169.842
178.137
186.811
195.591
204.106
212.003
218.916
224.544
228.665
231.124
231.762
230.401
227.049
221.955
215.359
207.520
198.689
189.176
179.289
169.358
159.704
150.630
142.297
134.812
128.291
122.834
118.513
115.234
112.874
111.294
110.363
109.953
109.954
110.246
110.708
111.241
111.722
112.051
112.122
111.840
111.096
109.828
108.110
106.028
103.680
101.149
98.549
95.948
93.457
91.157
89.149
87.511
86.332
85.677
85.610
86.214
87.544
89.615
92.370
95.781
99.795
104.377
109.430
114.825
120.401
126.022
131.524
136.761
141.577
145.782
149.229
151.733
153.150
153.410
152.580
150.688
147.793
143.922
139.160
133.671
127.604
121.148
114.459
107.715
101.042
94.576
88.427
82.726
77.580
73.104
69.324
66.254
63.918
62.327
61.502
61.443
62.143
63.582
65.756
68.640
72.233
76.480
81.353
86.781
92.717
99.118
105.910
112.996
120.222
127.492
134.640
141.562
148.107
154.176
159.623
164.346
168.226
171.119
172.966
173.742
173.490
172.198
169.904
166.615
162.382
157.292
151.488
145.062
138.156
130.863
123.314
115.614
107.851
100.147
92.588
85.294
78.339
71.775
65.628
59.927
54.695
49.969
45.765
42.058
38.809
35.971
33.504
31.360
29.502
27.891
26.503
25.306
24.279
23.387
22.608
21.915
21.293
20.730
20.207
19.714
19.232
18.751
18.269
17.791
17.319
16.858
16.411
15.981
15.572
15.187
14.832
14.507
14.220
13.972
13.767
13.600
13.469
13.367
13.291
13.236
13.197
13.172
13.154
13.144
13.136
13.129
13.118
13.102
13.088
13.090
13.118
13.188
13.308
13.493
13.758
14.124
14.616
15.255
16.066
17.072
18.299
19.760
21.466
23.420
25.629
28.095
30.823
33.822
37.073
40.537
44.172
47.937
51.784
55.677
59.566
63.406
67.118
70.657
73.939
76.900
79.484
81.613
83.260
84.400
85.050
85.176
84.791
83.872
82.426
80.458
78.034
75.211
72.036
68.580
64.888
61.030
57.049
53.002
48.937
44.902
40.941
37.109
33.450
30.008
26.789
23.795
21.029
18.488
16.176
14.092
12.238
10.600
9.164
7.913
6.830
5.898
5.101
4.421
3.844
3.359
2.954
2.620
2.344
2.116
1.925
1.760
1.617
1.493
1.386
1.292
1.209
1.133
1.062
0.994
0.929
0.868
0.808
0.752
0.698
0.646
0.596
0.549
0.503
0.461
0.420
0.383
0.348
0.315
0.286
0.259
0.235
0.213
0.193
0.176
0.160
0.147
0.135
0.125
0.116
0.109
0.102
0.097
0.092
0.088
0.085
0.082
0.079
0.077
0.075
0.073
0.071
0.070
0.068
0.067
0.065
0.064
0.063
0.061
0.060
0.059
0.057
0.056
0.055
0.053
0.052
0.051
0.049
0.048
0.047
0.046
0.045
0.044
0.043
0.042
0.041
0.040
0.040
0.039
0.038
0.038
0.037
0.036
0.036
0.035
0.035
0.034
0.033
0.033
0.032
0.031
0.030
0.029
0.028
0.027
0.026
0.025
0.024
0.023
0.022
0.021
0.019
0.018
0.017
0.016
0.015
0.013
0.012
0.011
0.010
0.009
0.008
0.007
0.007
0.006
0.005
0.005
0.004
0.003
0.003
0.003
0.002
0.002
0.002
0.001
0.001
0.001
0.001
0.001
0.001
0.000
0.000
0.000
0.000
0.000
0.000
0.000
0.000
0.000
0.000
0.000
0.000
0.000
0.000
0.000
0.000
0.000
0.000
0.000
0.000
0.000
0.000
0.000
-0.000
-0.000
-0.000
-0.000
-0.000
-0.000
-0.000
-0.000
-0.000
0.000
0.000
0.000
0.000
0.000
0.000
0.000
0.000
0.000
0.000
0.000
0.000
0.000
0.000
0
0
0
0
0
0
0
0
0
0
0
0
0
0
0
0
0
0
0
0
0
0
0
0
0
0
0
0
0
0
0
0
0
0
0
0
0
0
0
0
0
0
0
0
0
0
0
0
0
0
0
0
0
0
0
0
0
0
0
0
0
0
0
0
0
0
0
0
0
0
0
0
0
0
0
0
0
0
0
0
0
0
0
0
0
0
0
0
0
0
0
0
0
0
0
0
0
0
0
0
0
0
0
0
0
0
0
0
0
0
0
0
0
0
0
0
0
0
0
0
0
0
0
0
0
0
0
0
0
0
0
0
0
0
0
0
0
0
0
0
0
0
0
0
0
0
0
0
0
0
0
0
0
0
0
0
0
0
0
0
0
0
0
0
0
0
0
0
0
0
0
0
0
0
0
0
0
0
0
0
0
0
0
0
0
0
0
0
0
0
0
0
0
0
0
0
0
0
0
0
0
0
0
0
0
0
0
0
0
0
0
0
0
0
0
0
0
0
0
0
0
0
0
0
0
0
0
0
0
0
0
0
0
0
0
0
0
0
0
0
0
0
0
0
0
0
0
0
0
0
0
0
0
0
0
0
0
0
0
0
0
0
0
0
0
0
0
0
0
0
0
0
0
0
0
0
0
0
0
0
0
0
0
0
0
0
0
0
0
0
0
0
0
0
0
0
0
0
0
0
0
0
0
0
0
0
0
0
0
0
0
0
0
0
0
0
0
0
0
0
0
0
0
0
0
0
0
0
0
0
0
0
0
0
0
0
0
0
0
0
0
0
0
0
0
0
0
0
0
0
0
0
0
0
0
0
0
0
0
0
0
0
0
0
0
0
0
0
0
0
0
0
0
0
0
0
0
0
0
0
0
0
0
0
0
0
0
0
0
0
0
0
0
0
0
0
0
0
0
0
0
0
0
0
0
0
0
0
0
0
0
0
0
0
0
0
0
0
0
0
0
0
0
0
0
0
0
0
0
0
0
0
0
0
0
0
0
0
0
0
0
0
0
0
0
0
0
0
0
0
0
0
0
0
0
0
0
0
0
0
0
0
0
0
0
0
0
0
0
0
0
0
0
0
0
0
0
0
0
0
0
0
0
0
0
0
0
0
0
0
0
0
0
0
0
0
0
0
0
0
0
0
0
0
$MCA_CAL:
3
-1.4656616 2.9313233 0.00000000000000
$ENER_FIT:
-1.4656616 2.9313233 0.00000000000000
$MCA_CAL_DATA:
3
298 872
597 1749
896 2625
$CAMBIO:
Parent file specification: C:\GADRAS-DRF\Temp\152EU_100.0_50.0_iron_1.53_7.5.pcf
Successful read of spectrum: Yes
Error message: None
Warning: None
Information: None
Neutrons: 0
Number of spectral records in the parent file: 1
Record number of this spectrum in the parent file: 1
Date and time of acquisition read successfully from the original file: Yes
Live time read successfully from the original file: Yes
True time read successfully from the original file: Yes
GADRAS Tag character is:  
Version: 130122
Parent file type: Sandia GADRAS PCF
