$SPEC_ID:
152EU,1uC{13,1.82}
$MEAS_TIM:
3600.00 3600.00
$DATE_MEA:
3/9/2018 5:22:25 PM
$DATA:
0 1193
1491.974
1586.600
1924.091
2940.800
2400.298
1541.558
1204.241
883.529
876.366
956.245
1501.858
3505.136
8384.720
11765.108
8533.827
4559.017
2242.881
974.945
598.025
578.462
621.461
674.428
721.253
766.488
821.594
892.953
960.114
1010.465
1050.941
1099.187
1162.900
1232.818
1285.057
1313.519
1342.307
1404.425
1555.746
1872.113
2409.284
3108.152
3722.038
3898.387
3482.072
2667.463
1807.715
1175.394
825.525
683.222
649.316
652.049
658.568
659.121
653.412
641.510
628.937
620.928
617.796
618.629
622.338
628.282
634.782
639.772
642.817
643.841
642.714
639.783
635.737
631.338
626.854
621.381
614.532
606.853
598.933
591.522
587.509
591.061
606.777
638.668
686.661
747.959
813.346
871.279
908.871
914.627
887.153
829.617
752.913
670.761
593.886
530.954
484.895
453.997
435.654
426.299
422.702
422.589
423.989
425.934
427.731
428.884
428.987
428.109
427.097
427.056
430.179
439.000
457.132
489.206
539.288
609.662
701.943
813.624
938.708
1069.212
1190.043
1284.856
1341.719
1353.666
1315.751
1234.231
1119.895
984.374
841.663
705.772
585.603
484.701
405.919
347.862
306.896
279.504
262.646
253.450
249.435
249.330
252.045
256.562
262.025
267.579
272.541
276.480
279.004
280.039
280.028
279.428
278.641
277.932
277.561
277.528
277.340
276.480
274.474
271.066
266.005
259.163
250.904
241.674
231.953
222.253
213.126
205.088
198.370
192.927
188.729
185.658
183.442
181.808
180.491
179.345
178.238
177.059
175.757
174.358
172.880
171.348
169.826
168.368
167.028
165.838
164.808
163.960
163.296
162.834
162.598
162.593
162.787
163.089
163.408
163.661
163.814
163.866
163.798
163.590
163.183
162.526
161.546
160.238
158.656
156.872
154.940
152.896
150.797
148.664
146.536
144.445
142.437
140.535
138.775
137.178
135.745
134.486
133.406
132.514
131.790
131.237
130.858
130.640
130.585
130.687
130.952
131.362
131.910
132.583
133.376
134.262
135.200
136.177
137.151
138.081
138.912
139.597
140.073
140.311
140.319
140.119
139.718
139.129
138.366
137.413
136.281
134.971
133.567
132.184
130.948
129.994
129.423
129.314
129.735
130.766
132.471
134.922
138.188
142.340
147.445
153.501
160.385
167.942
176.031
184.489
193.052
201.355
209.052
215.785
221.260
225.260
227.635
228.231
226.873
223.569
218.565
212.094
204.409
195.756
186.436
176.752
167.025
157.571
148.683
140.522
133.189
126.801
121.453
117.218
114.002
111.685
110.131
109.213
108.804
108.796
109.074
109.518
110.030
110.492
110.804
110.864
110.579
109.840
108.589
106.896
104.848
102.540
100.053
97.499
94.946
92.500
90.241
88.270
86.660
85.499
84.852
84.781
85.366
86.664
88.687
91.380
94.715
98.639
103.119
108.059
113.334
118.785
124.280
129.659
134.779
139.486
143.596
146.962
149.405
150.781
151.024
150.199
148.333
145.486
141.683
137.008
131.623
125.672
119.340
112.780
106.167
99.622
93.281
87.251
81.660
76.615
72.226
68.520
65.510
63.220
61.660
60.850
60.790
61.475
62.882
65.010
67.835
71.353
75.513
80.287
85.605
91.420
97.691
104.345
111.288
118.367
125.490
132.493
139.273
145.683
151.627
156.960
161.583
165.378
168.207
170.011
170.764
170.509
169.234
166.975
163.741
159.581
154.579
148.878
142.566
135.785
128.624
121.214
113.656
106.036
98.475
91.057
83.898
77.072
70.629
64.595
58.999
53.863
49.224
45.097
41.459
38.269
35.483
33.061
30.956
29.132
27.549
26.186
25.009
24.000
23.123
22.356
21.674
21.063
20.509
19.994
19.509
19.034
18.561
18.086
17.616
17.151
16.697
16.257
15.834
15.432
15.052
14.702
14.383
14.100
13.855
13.653
13.489
13.359
13.258
13.183
13.128
13.089
13.064
13.046
13.035
13.026
13.018
13.007
12.990
12.976
12.978
13.005
13.072
13.190
13.371
13.631
13.991
14.474
15.101
15.899
16.887
18.092
19.529
21.205
23.125
25.295
27.719
30.399
33.346
36.539
39.942
43.513
47.212
50.990
54.815
58.635
62.408
66.055
69.531
72.755
75.663
78.201
80.291
81.907
83.025
83.660
83.781
83.399
82.492
81.068
79.131
76.745
73.967
70.843
67.443
63.812
60.016
56.101
52.121
48.122
44.154
40.258
36.490
32.892
29.507
26.341
23.399
20.679
18.180
15.907
13.858
12.035
10.425
9.013
7.783
6.718
5.801
5.017
4.348
3.781
3.304
2.906
2.578
2.306
2.082
1.894
1.732
1.592
1.470
1.364
1.272
1.189
1.115
1.045
0.978
0.915
0.854
0.796
0.740
0.687
0.635
0.587
0.540
0.496
0.453
0.414
0.377
0.342
0.311
0.281
0.255
0.231
0.210
0.190
0.173
0.158
0.145
0.133
0.123
0.114
0.107
0.101
0.096
0.091
0.087
0.084
0.081
0.078
0.076
0.074
0.072
0.070
0.069
0.067
0.066
0.065
0.063
0.062
0.060
0.059
0.058
0.056
0.055
0.054
0.052
0.051
0.050
0.049
0.047
0.046
0.045
0.044
0.043
0.042
0.041
0.040
0.040
0.039
0.038
0.038
0.037
0.036
0.036
0.035
0.035
0.034
0.033
0.033
0.032
0.031
0.031
0.030
0.029
0.028
0.027
0.026
0.025
0.024
0.023
0.021
0.020
0.019
0.018
0.017
0.015
0.014
0.013
0.012
0.011
0.010
0.009
0.008
0.007
0.006
0.006
0.005
0.004
0.004
0.003
0.003
0.003
0.002
0.002
0.002
0.001
0.001
0.001
0.001
0.001
0.001
0.000
0.000
0.000
0.000
0.000
0.000
0.000
0.000
0.000
0.000
0.000
0.000
0.000
0.000
0.000
0.000
0.000
0.000
0.000
0.000
0.000
0.000
0.000
-0.000
-0.000
-0.000
-0.000
-0.000
-0.000
-0.000
-0.000
-0.000
0.000
0.000
0.000
0.000
0.000
0.000
0.000
0.000
0.000
0.000
0.000
0.000
0.000
0.000
0
0
0
0
0
0
0
0
0
0
0
0
0
0
0
0
0
0
0
0
0
0
0
0
0
0
0
0
0
0
0
0
0
0
0
0
0
0
0
0
0
0
0
0
0
0
0
0
0
0
0
0
0
0
0
0
0
0
0
0
0
0
0
0
0
0
0
0
0
0
0
0
0
0
0
0
0
0
0
0
0
0
0
0
0
0
0
0
0
0
0
0
0
0
0
0
0
0
0
0
0
0
0
0
0
0
0
0
0
0
0
0
0
0
0
0
0
0
0
0
0
0
0
0
0
0
0
0
0
0
0
0
0
0
0
0
0
0
0
0
0
0
0
0
0
0
0
0
0
0
0
0
0
0
0
0
0
0
0
0
0
0
0
0
0
0
0
0
0
0
0
0
0
0
0
0
0
0
0
0
0
0
0
0
0
0
0
0
0
0
0
0
0
0
0
0
0
0
0
0
0
0
0
0
0
0
0
0
0
0
0
0
0
0
0
0
0
0
0
0
0
0
0
0
0
0
0
0
0
0
0
0
0
0
0
0
0
0
0
0
0
0
0
0
0
0
0
0
0
0
0
0
0
0
0
0
0
0
0
0
0
0
0
0
0
0
0
0
0
0
0
0
0
0
0
0
0
0
0
0
0
0
0
0
0
0
0
0
0
0
0
0
0
0
0
0
0
0
0
0
0
0
0
0
0
0
0
0
0
0
0
0
0
0
0
0
0
0
0
0
0
0
0
0
0
0
0
0
0
0
0
0
0
0
0
0
0
0
0
0
0
0
0
0
0
0
0
0
0
0
0
0
0
0
0
0
0
0
0
0
0
0
0
0
0
0
0
0
0
0
0
0
0
0
0
0
0
0
0
0
0
0
0
0
0
0
0
0
0
0
0
0
0
0
0
0
0
0
0
0
0
0
0
0
0
0
0
0
0
0
0
0
0
0
0
0
0
0
0
0
0
0
0
0
0
0
0
0
0
0
0
0
0
0
0
0
0
0
0
0
0
0
0
0
0
0
0
0
0
0
0
0
0
0
0
0
0
0
0
0
0
0
0
0
0
0
0
0
0
0
0
0
0
0
0
0
0
0
0
0
0
0
0
0
0
0
0
0
0
0
0
0
0
0
0
0
0
0
0
0
0
0
0
0
$MCA_CAL:
3
-1.4656616 2.9313233 0.00000000000000
$ENER_FIT:
-1.4656616 2.9313233 0.00000000000000
$MCA_CAL_DATA:
3
298 872
597 1749
896 2625
$CAMBIO:
Parent file specification: C:\GADRAS-DRF\Temp\152EU_100.0_50.0_alum_1.82_7.5.pcf
Successful read of spectrum: Yes
Error message: None
Warning: None
Information: None
Neutrons: 0
Number of spectral records in the parent file: 1
Record number of this spectrum in the parent file: 1
Date and time of acquisition read successfully from the original file: Yes
Live time read successfully from the original file: Yes
True time read successfully from the original file: Yes
GADRAS Tag character is:  
Version: 130122
Parent file type: Sandia GADRAS PCF
