$SPEC_ID:
152EU,1uC{13,7.49}
$MEAS_TIM:
3600.00 3600.00
$DATE_MEA:
3/9/2018 5:22:25 PM
$DATA:
0 1193
999.561
983.292
925.244
1523.011
1299.226
1100.768
934.088
794.236
709.549
640.571
624.719
691.659
974.909
1260.742
1137.043
1002.214
849.759
784.088
840.318
936.878
1026.318
1119.156
1197.755
1237.606
1287.473
1350.575
1409.447
1449.914
1473.610
1501.661
1542.433
1591.089
1626.160
1628.537
1629.763
1639.371
1674.592
1774.440
1970.107
2311.527
2662.698
2746.858
2407.228
1856.197
1357.972
1054.327
931.104
899.164
900.886
911.284
917.886
916.433
905.904
887.783
867.935
851.081
838.542
829.496
822.986
818.509
814.834
810.422
804.818
798.938
793.318
786.633
779.705
773.491
766.992
759.565
751.121
742.000
731.373
718.075
703.666
691.370
685.870
691.495
711.048
742.339
780.207
816.280
839.074
836.104
805.781
753.016
688.829
624.914
571.002
531.967
505.650
488.958
478.526
472.365
469.654
469.142
469.257
469.349
469.292
468.706
467.009
464.071
460.108
455.802
452.261
450.633
452.177
459.620
477.544
510.035
559.884
628.391
712.431
806.839
898.956
973.763
1018.499
1022.252
982.263
906.822
806.271
694.335
584.950
487.311
408.171
349.785
308.546
280.559
262.362
250.704
243.491
239.641
238.242
238.905
241.305
244.950
249.252
253.552
257.042
258.909
258.971
257.598
255.238
252.469
249.939
248.125
247.258
247.505
248.354
248.860
248.139
245.819
241.661
235.632
228.192
219.846
211.191
202.887
195.591
189.568
184.832
181.347
178.925
177.293
176.174
175.345
174.581
173.703
172.663
171.460
170.091
168.602
167.035
165.433
163.859
162.367
160.997
159.748
158.603
157.569
156.680
155.993
155.560
155.320
155.185
155.073
154.959
154.854
154.762
154.654
154.442
154.046
153.411
152.543
151.431
150.090
148.557
146.889
145.127
143.298
141.453
139.611
137.801
136.040
134.356
132.760
131.276
129.939
128.762
127.741
126.844
126.050
125.325
124.690
124.166
123.759
123.471
123.290
123.213
123.223
123.331
123.541
123.868
124.297
124.800
125.369
125.968
126.556
127.079
127.496
127.757
127.839
127.716
127.373
126.803
126.026
125.075
123.955
122.701
121.334
119.888
118.392
116.927
115.591
114.467
113.632
113.125
112.989
113.251
113.989
115.340
117.445
120.445
124.402
129.289
135.060
141.671
148.945
156.569
164.200
171.510
178.138
183.714
187.830
190.117
190.403
188.759
185.286
180.096
173.381
165.510
156.865
147.835
138.763
129.935
121.622
114.097
107.579
102.092
97.617
94.126
91.588
89.909
88.972
88.651
88.825
89.382
90.226
91.251
92.349
93.427
94.357
95.024
95.307
95.108
94.418
93.267
91.692
89.716
87.409
84.856
82.175
79.444
76.772
74.247
71.968
70.017
68.496
67.464
66.953
67.010
67.666
68.956
70.865
73.394
76.522
80.244
84.494
89.178
94.181
99.403
104.715
109.925
114.811
119.127
122.659
125.212
126.728
127.136
126.402
124.465
121.387
117.319
112.445
106.944
100.974
94.728
88.377
82.110
76.094
70.505
65.403
60.824
56.789
53.337
50.486
48.221
46.528
45.383
44.769
44.668
45.089
46.030
47.505
49.512
52.063
55.144
58.765
62.909
67.572
72.738
78.320
84.245
90.412
96.761
103.166
109.495
115.570
121.250
126.355
130.754
134.363
137.094
138.901
139.692
139.431
138.123
135.843
132.645
128.593
123.734
118.198
112.105
105.614
98.849
91.964
85.077
78.269
71.645
65.281
59.280
53.704
48.587
43.941
39.782
36.122
32.978
30.309
28.060
26.174
24.591
23.255
22.118
21.164
20.369
19.715
19.179
18.746
18.388
18.085
17.813
17.548
17.270
16.961
16.629
16.270
15.889
15.486
15.066
14.632
14.197
13.767
13.353
12.961
12.600
12.275
11.988
11.745
11.550
11.407
11.313
11.264
11.251
11.270
11.314
11.375
11.446
11.515
11.574
11.610
11.616
11.582
11.512
11.412
11.284
11.133
10.964
10.786
10.619
10.485
10.403
10.395
10.480
10.684
11.032
11.553
12.273
13.221
14.422
15.895
17.645
19.678
22.004
24.625
27.549
30.753
34.189
37.803
41.553
45.382
49.248
53.072
56.782
60.278
63.473
66.290
68.631
70.452
71.718
72.434
72.558
72.089
70.997
69.309
67.080
64.389
61.308
57.899
54.245
50.405
46.457
42.459
38.486
34.602
30.877
27.365
24.093
21.063
18.284
15.760
13.500
11.508
9.774
8.277
6.995
5.906
4.987
4.217
3.577
3.052
2.625
2.284
2.013
1.797
1.623
1.483
1.371
1.282
1.211
1.152
1.100
1.050
1.003
0.958
0.913
0.869
0.825
0.779
0.733
0.686
0.639
0.592
0.546
0.501
0.457
0.414
0.373
0.335
0.299
0.266
0.237
0.211
0.187
0.167
0.149
0.134
0.120
0.109
0.100
0.092
0.085
0.080
0.076
0.072
0.069
0.066
0.064
0.063
0.061
0.060
0.059
0.058
0.057
0.056
0.055
0.054
0.053
0.052
0.051
0.051
0.050
0.049
0.048
0.046
0.045
0.044
0.043
0.042
0.041
0.039
0.038
0.037
0.036
0.035
0.034
0.033
0.032
0.031
0.031
0.030
0.030
0.029
0.029
0.028
0.028
0.028
0.028
0.028
0.028
0.027
0.027
0.027
0.026
0.026
0.025
0.025
0.024
0.023
0.022
0.022
0.020
0.019
0.018
0.017
0.016
0.015
0.014
0.012
0.011
0.010
0.009
0.008
0.007
0.006
0.006
0.005
0.004
0.004
0.003
0.003
0.002
0.002
0.002
0.001
0.001
0.001
0.001
0.001
0.000
0.000
0.000
0.000
0.000
0.000
0.000
0.000
0.000
0.000
0.000
0.000
0.000
0.000
0.000
0.000
0.000
0.000
0.000
0.000
0.000
0.000
0.000
0.000
-0.000
-0.000
-0.000
-0.000
-0.000
-0.000
-0.000
0.000
0.000
0.000
0.000
0.000
0.000
0.000
0.000
-0.000
-0.000
-0.000
-0.000
-0.000
-0.000
-0.000
-0.000
0.000
0.000
0.000
0.000
0
0
0
0
0
0
0
0
0
0
0
0
0
0
0
0
0
0
0
0
0
0
0
0
0
0
0
0
0
0
0
0
0
0
0
0
0
0
0
0
0
0
0
0
0
0
0
0
0
0
0
0
0
0
0
0
0
0
0
0
0
0
0
0
0
0
0
0
0
0
0
0
0
0
0
0
0
0
0
0
0
0
0
0
0
0
0
0
0
0
0
0
0
0
0
0
0
0
0
0
0
0
0
0
0
0
0
0
0
0
0
0
0
0
0
0
0
0
0
0
0
0
0
0
0
0
0
0
0
0
0
0
0
0
0
0
0
0
0
0
0
0
0
0
0
0
0
0
0
0
0
0
0
0
0
0
0
0
0
0
0
0
0
0
0
0
0
0
0
0
0
0
0
0
0
0
0
0
0
0
0
0
0
0
0
0
0
0
0
0
0
0
0
0
0
0
0
0
0
0
0
0
0
0
0
0
0
0
0
0
0
0
0
0
0
0
0
0
0
0
0
0
0
0
0
0
0
0
0
0
0
0
0
0
0
0
0
0
0
0
0
0
0
0
0
0
0
0
0
0
0
0
0
0
0
0
0
0
0
0
0
0
0
0
0
0
0
0
0
0
0
0
0
0
0
0
0
0
0
0
0
0
0
0
0
0
0
0
0
0
0
0
0
0
0
0
0
0
0
0
0
0
0
0
0
0
0
0
0
0
0
0
0
0
0
0
0
0
0
0
0
0
0
0
0
0
0
0
0
0
0
0
0
0
0
0
0
0
0
0
0
0
0
0
0
0
0
0
0
0
0
0
0
0
0
0
0
0
0
0
0
0
0
0
0
0
0
0
0
0
0
0
0
0
0
0
0
0
0
0
0
0
0
0
0
0
0
0
0
0
0
0
0
0
0
0
0
0
0
0
0
0
0
0
0
0
0
0
0
0
0
0
0
0
0
0
0
0
0
0
0
0
0
0
0
0
0
0
0
0
0
0
0
0
0
0
0
0
0
0
0
0
0
0
0
0
0
0
0
0
0
0
0
0
0
0
0
0
0
0
0
0
0
0
0
0
0
0
0
0
0
0
0
0
0
0
0
0
0
0
0
0
0
0
0
0
0
0
0
0
0
0
0
0
0
0
0
0
0
0
0
0
0
0
0
$MCA_CAL:
3
-1.4656616 2.9313233 0.00000000000000
$ENER_FIT:
-1.4656616 2.9313233 0.00000000000000
$MCA_CAL_DATA:
3
298 872
597 1749
896 2625
$CAMBIO:
Parent file specification: C:\GADRAS-DRF\Temp\152EU_75.0_50.0_alum_7.49_6.5.pcf
Successful read of spectrum: Yes
Error message: None
Warning: None
Information: None
Neutrons: 0
Number of spectral records in the parent file: 1
Record number of this spectrum in the parent file: 1
Date and time of acquisition read successfully from the original file: Yes
Live time read successfully from the original file: Yes
True time read successfully from the original file: Yes
GADRAS Tag character is:  
Version: 130122
Parent file type: Sandia GADRAS PCF
