$SPEC_ID:
152EU,1uC{82,0.92}
$MEAS_TIM:
3600.00 3600.00
$DATE_MEA:
3/9/2018 5:22:25 PM
$DATA:
0 1193
1268.282
1174.218
1067.344
996.007
878.445
776.742
687.419
612.908
549.664
492.857
460.174
431.482
403.964
383.734
369.881
358.721
348.977
342.310
340.029
340.826
345.130
354.917
361.135
357.111
348.958
343.591
341.885
341.413
340.250
342.858
348.767
355.903
362.131
366.198
369.773
374.224
382.561
400.492
437.832
497.477
559.341
584.805
553.523
488.322
425.883
393.091
387.956
395.172
408.789
421.946
427.052
424.337
417.032
408.300
402.472
400.724
402.297
406.214
412.223
419.955
428.050
434.705
439.057
441.174
441.176
438.656
435.352
432.807
430.147
426.686
422.264
417.299
411.450
404.324
398.073
396.176
403.158
423.756
461.832
517.431
584.849
650.100
697.345
711.355
688.618
633.660
561.840
489.350
428.032
384.235
356.765
342.348
336.192
334.869
336.255
339.096
342.719
346.557
350.045
352.531
353.299
352.206
349.549
346.275
343.929
344.831
352.109
370.214
405.231
463.056
548.914
665.650
808.712
970.103
1129.556
1262.878
1349.616
1372.285
1325.534
1220.435
1072.069
903.597
738.794
592.026
472.815
384.464
322.167
280.558
254.231
237.920
228.348
223.938
223.383
226.115
231.655
239.216
247.805
256.362
263.708
268.671
270.903
270.796
268.896
266.251
264.081
263.221
263.891
266.193
269.332
271.922
272.655
270.846
265.968
257.892
247.404
235.386
222.822
210.763
200.244
191.703
185.183
180.654
177.806
176.185
175.339
174.922
174.600
174.106
173.354
172.326
171.012
169.484
167.822
166.106
164.433
162.893
161.550
160.391
159.378
158.507
157.842
157.488
157.530
157.880
158.403
158.969
159.539
160.124
160.732
161.315
161.746
161.907
161.709
161.133
160.146
158.745
156.995
154.986
152.792
150.467
148.088
145.700
143.353
141.077
138.916
136.893
135.048
133.425
132.052
130.918
129.979
129.197
128.531
128.005
127.648
127.472
127.480
127.655
127.991
128.470
129.105
129.904
130.884
132.030
133.303
134.689
136.140
137.579
138.913
140.060
140.939
141.516
141.758
141.641
141.161
140.352
139.258
137.897
136.322
134.570
132.693
130.742
128.840
127.134
125.754
124.821
124.408
124.589
125.428
127.044
129.638
133.415
138.580
145.219
153.285
162.703
173.403
185.124
197.400
209.736
221.647
232.578
241.928
249.045
253.326
254.488
252.635
247.915
240.495
230.672
219.032
206.177
192.724
179.209
166.057
153.670
142.451
132.728
124.547
117.895
112.743
109.060
106.701
105.481
105.203
105.679
106.736
108.225
109.991
111.870
113.718
115.350
116.592
117.265
117.223
116.448
114.976
112.853
110.110
106.847
103.202
99.349
95.416
91.571
87.941
84.674
81.892
79.744
78.318
77.670
77.868
78.962
81.007
83.992
87.918
92.767
98.534
105.120
112.373
120.109
128.169
136.350
144.369
151.902
158.593
164.132
168.231
170.796
171.716
170.930
168.337
164.027
158.228
151.210
143.240
134.559
125.452
116.171
106.996
98.179
89.980
82.491
75.769
69.851
64.799
60.641
57.355
54.917
53.288
52.439
52.344
53.013
54.449
56.671
59.682
63.497
68.101
73.508
79.697
86.664
94.385
102.731
111.590
120.812
130.302
139.875
149.337
158.432
166.951
174.633
181.287
186.787
191.007
193.873
195.250
195.086
193.387
190.269
185.811
180.113
173.245
165.394
156.728
147.476
137.812
127.951
118.066
108.280
98.747
89.585
80.944
72.922
65.564
58.888
52.916
47.664
43.155
39.333
36.115
33.421
31.166
29.269
27.662
26.320
25.207
24.299
23.561
22.970
22.486
22.083
21.724
21.375
21.007
20.598
20.154
19.671
19.157
18.609
18.034
17.439
16.840
16.247
15.676
15.137
14.640
14.195
13.805
13.478
13.219
13.034
12.920
12.869
12.871
12.918
13.000
13.108
13.229
13.348
13.453
13.525
13.555
13.528
13.452
13.330
13.170
12.976
12.756
12.521
12.301
12.125
12.021
12.019
12.146
12.439
12.935
13.674
14.695
16.037
17.741
19.829
22.311
25.195
28.494
32.213
36.361
40.904
45.776
50.899
56.213
61.638
67.111
72.524
77.777
82.730
87.266
91.273
94.619
97.241
99.091
100.172
100.427
99.852
98.405
96.121
93.078
89.386
85.145
80.443
75.392
70.079
64.609
59.066
53.551
48.155
42.975
38.089
33.533
29.311
25.437
21.918
18.767
15.991
13.576
11.493
9.710
8.195
6.918
5.848
4.956
4.223
3.628
3.151
2.772
2.470
2.227
2.032
1.878
1.755
1.658
1.577
1.505
1.438
1.374
1.311
1.251
1.190
1.129
1.067
1.003
0.939
0.875
0.811
0.747
0.685
0.625
0.566
0.511
0.458
0.409
0.364
0.323
0.287
0.255
0.227
0.202
0.181
0.163
0.147
0.134
0.124
0.115
0.107
0.101
0.096
0.092
0.089
0.086
0.084
0.082
0.080
0.079
0.077
0.076
0.075
0.074
0.072
0.071
0.070
0.069
0.068
0.066
0.065
0.064
0.062
0.061
0.059
0.058
0.056
0.054
0.053
0.051
0.050
0.048
0.047
0.045
0.044
0.043
0.042
0.041
0.040
0.039
0.039
0.038
0.038
0.038
0.037
0.037
0.037
0.037
0.037
0.036
0.036
0.035
0.035
0.034
0.033
0.032
0.031
0.030
0.029
0.028
0.026
0.025
0.023
0.021
0.020
0.018
0.017
0.015
0.014
0.012
0.011
0.010
0.009
0.008
0.007
0.006
0.005
0.004
0.004
0.003
0.002
0.002
0.002
0.001
0.001
0.001
0.001
0.001
0.000
0.000
0.000
0.000
0.000
0.000
0.000
0.000
0.000
0.000
0.000
0.000
0.000
0.000
0.000
0.000
0.000
0.000
0.000
0.000
0.000
0.000
0.000
-0.000
-0.000
-0.000
-0.000
-0.000
-0.000
-0.000
0.000
0.000
0.000
0.000
0.000
0.000
0.000
0.000
-0.000
-0.000
-0.000
-0.000
-0.000
-0.000
-0.000
-0.000
0.000
0.000
0.000
0.000
0
0
0
0
0
0
0
0
0
0
0
0
0
0
0
0
0
0
0
0
0
0
0
0
0
0
0
0
0
0
0
0
0
0
0
0
0
0
0
0
0
0
0
0
0
0
0
0
0
0
0
0
0
0
0
0
0
0
0
0
0
0
0
0
0
0
0
0
0
0
0
0
0
0
0
0
0
0
0
0
0
0
0
0
0
0
0
0
0
0
0
0
0
0
0
0
0
0
0
0
0
0
0
0
0
0
0
0
0
0
0
0
0
0
0
0
0
0
0
0
0
0
0
0
0
0
0
0
0
0
0
0
0
0
0
0
0
0
0
0
0
0
0
0
0
0
0
0
0
0
0
0
0
0
0
0
0
0
0
0
0
0
0
0
0
0
0
0
0
0
0
0
0
0
0
0
0
0
0
0
0
0
0
0
0
0
0
0
0
0
0
0
0
0
0
0
0
0
0
0
0
0
0
0
0
0
0
0
0
0
0
0
0
0
0
0
0
0
0
0
0
0
0
0
0
0
0
0
0
0
0
0
0
0
0
0
0
0
0
0
0
0
0
0
0
0
0
0
0
0
0
0
0
0
0
0
0
0
0
0
0
0
0
0
0
0
0
0
0
0
0
0
0
0
0
0
0
0
0
0
0
0
0
0
0
0
0
0
0
0
0
0
0
0
0
0
0
0
0
0
0
0
0
0
0
0
0
0
0
0
0
0
0
0
0
0
0
0
0
0
0
0
0
0
0
0
0
0
0
0
0
0
0
0
0
0
0
0
0
0
0
0
0
0
0
0
0
0
0
0
0
0
0
0
0
0
0
0
0
0
0
0
0
0
0
0
0
0
0
0
0
0
0
0
0
0
0
0
0
0
0
0
0
0
0
0
0
0
0
0
0
0
0
0
0
0
0
0
0
0
0
0
0
0
0
0
0
0
0
0
0
0
0
0
0
0
0
0
0
0
0
0
0
0
0
0
0
0
0
0
0
0
0
0
0
0
0
0
0
0
0
0
0
0
0
0
0
0
0
0
0
0
0
0
0
0
0
0
0
0
0
0
0
0
0
0
0
0
0
0
0
0
0
0
0
0
0
0
0
0
0
0
0
0
0
0
0
0
0
0
0
0
0
0
0
0
0
0
0
0
0
0
0
0
0
$MCA_CAL:
3
-1.4656616 2.9313233 0.00000000000000
$ENER_FIT:
-1.4656616 2.9313233 0.00000000000000
$MCA_CAL_DATA:
3
298 872
597 1749
896 2625
$CAMBIO:
Parent file specification: C:\GADRAS-DRF\Temp\152EU_150.0_50.0_lead_0.92_6.5.pcf
Successful read of spectrum: Yes
Error message: None
Warning: None
Information: None
Neutrons: 0
Number of spectral records in the parent file: 1
Record number of this spectrum in the parent file: 1
Date and time of acquisition read successfully from the original file: Yes
Live time read successfully from the original file: Yes
True time read successfully from the original file: Yes
GADRAS Tag character is:  
Version: 130122
Parent file type: Sandia GADRAS PCF
