$SPEC_ID:
152EU,1uC{26,3.50}
$MEAS_TIM:
3600.00 3600.00
$DATE_MEA:
3/9/2018 5:22:25 PM
$DATA:
0 1193
1601.652
1582.598
1475.254
1683.313
1502.257
1294.819
1121.367
981.079
872.867
779.774
728.076
684.642
644.893
617.839
602.501
594.933
592.512
599.233
619.867
649.017
692.061
742.114
783.388
814.657
849.596
894.680
941.308
973.992
989.223
1007.786
1041.255
1086.861
1130.654
1163.926
1202.625
1265.178
1379.269
1574.546
1858.876
2193.337
2469.455
2528.466
2317.479
1915.627
1477.774
1142.974
943.584
856.209
840.109
853.406
871.309
886.879
892.728
886.015
870.481
851.744
834.640
820.839
810.791
804.079
798.949
793.683
787.933
781.587
774.604
767.583
761.563
756.599
752.166
747.974
743.789
739.091
733.660
728.882
726.834
730.512
742.767
764.430
795.255
832.019
870.062
901.463
917.140
912.096
884.410
836.613
776.377
711.428
649.049
595.518
552.698
520.958
499.164
485.084
476.607
471.944
469.403
467.954
466.779
465.426
463.830
462.108
461.113
461.914
466.141
476.128
494.310
523.392
566.159
624.298
696.598
781.347
873.598
965.257
1047.890
1112.475
1149.566
1151.915
1120.893
1059.999
974.443
873.012
765.115
658.891
560.571
476.074
408.184
355.552
316.509
289.121
271.067
260.049
254.198
252.260
252.998
255.383
258.709
262.277
265.537
268.205
270.044
270.902
271.004
270.618
270.014
269.280
268.453
267.567
266.446
264.788
262.254
258.652
253.981
248.259
241.559
234.157
226.426
218.717
211.349
204.563
198.616
193.683
189.697
186.517
183.990
181.979
180.333
178.917
177.591
176.297
174.992
173.647
172.244
170.818
169.425
168.111
166.896
165.787
164.783
163.896
163.139
162.544
162.151
161.970
161.949
162.004
162.053
162.028
161.908
161.701
161.392
160.974
160.407
159.660
158.683
157.455
156.010
154.405
152.683
150.878
149.035
147.162
145.284
143.420
141.612
139.885
138.274
136.820
135.521
134.369
133.354
132.476
131.720
131.107
130.655
130.368
130.252
130.287
130.460
130.741
131.114
131.563
132.090
132.680
133.316
133.993
134.655
135.262
135.765
136.134
136.350
136.415
136.327
136.095
135.710
135.175
134.505
133.686
132.736
131.705
130.683
129.743
128.967
128.443
128.233
128.408
129.034
130.189
131.919
134.261
137.247
140.908
145.272
150.292
155.859
161.845
168.130
174.585
181.022
187.178
192.806
197.648
201.480
204.144
205.587
205.752
204.560
201.961
198.066
193.049
187.103
180.413
173.180
165.599
157.892
150.278
142.974
136.195
130.060
124.607
119.853
115.828
112.554
110.019
108.125
106.777
105.873
105.322
105.022
104.877
104.811
104.725
104.534
104.150
103.550
102.723
101.670
100.394
98.889
97.183
95.335
93.440
91.548
89.747
88.101
86.688
85.563
84.807
84.483
84.652
85.363
86.594
88.338
90.567
93.275
96.432
99.980
103.808
107.835
111.952
116.077
120.092
123.883
127.331
130.293
132.660
134.293
135.129
135.157
134.414
132.904
130.656
127.675
124.032
119.848
115.219
110.279
105.130
99.898
94.675
89.572
84.680
80.104
75.931
72.268
69.162
66.627
64.689
63.361
62.666
62.614
63.210
64.426
66.252
68.657
71.635
75.148
79.178
83.644
88.486
93.651
99.061
104.669
110.373
116.096
121.697
127.087
132.136
136.756
140.824
144.296
147.120
149.226
150.583
151.115
150.802
149.637
147.698
145.033
141.705
137.755
133.261
128.266
122.867
117.120
111.116
104.932
98.632
92.308
86.017
79.847
73.855
68.121
62.716
57.711
53.138
48.986
45.223
41.824
38.767
36.026
33.577
31.393
29.459
27.751
26.252
24.938
23.795
22.795
21.926
21.165
20.494
19.896
19.349
18.840
18.349
17.879
17.426
16.992
16.574
16.174
15.791
15.425
15.078
14.752
14.449
14.169
13.916
13.691
13.495
13.325
13.179
13.055
12.953
12.868
12.799
12.746
12.707
12.684
12.674
12.681
12.701
12.737
12.791
12.875
13.000
13.179
13.423
13.742
14.151
14.660
15.284
16.037
16.935
17.991
19.221
20.638
22.256
24.071
26.076
28.260
30.616
33.139
35.814
38.637
41.582
44.609
47.672
50.737
53.755
56.694
59.500
62.151
64.595
66.796
68.727
70.338
71.605
72.476
72.938
72.964
72.590
71.821
70.689
69.200
67.383
65.256
62.835
60.170
57.295
54.262
51.107
47.878
44.618
41.372
38.168
35.034
31.986
29.048
26.237
23.577
21.087
18.785
16.678
14.753
13.007
11.428
10.010
8.745
7.624
6.640
5.781
5.036
4.395
3.845
3.377
2.977
2.636
2.342
2.090
1.875
1.692
1.537
1.405
1.292
1.193
1.104
1.024
0.951
0.884
0.823
0.767
0.714
0.665
0.617
0.572
0.528
0.487
0.448
0.411
0.376
0.344
0.314
0.287
0.262
0.239
0.218
0.199
0.182
0.167
0.153
0.141
0.130
0.120
0.112
0.105
0.098
0.093
0.088
0.083
0.080
0.076
0.074
0.071
0.069
0.067
0.065
0.064
0.062
0.061
0.059
0.058
0.056
0.055
0.054
0.053
0.051
0.050
0.049
0.048
0.047
0.046
0.045
0.044
0.043
0.042
0.041
0.040
0.039
0.038
0.037
0.037
0.036
0.035
0.035
0.034
0.033
0.033
0.032
0.031
0.031
0.030
0.029
0.029
0.028
0.027
0.026
0.025
0.025
0.024
0.023
0.022
0.021
0.020
0.019
0.018
0.017
0.016
0.015
0.014
0.013
0.012
0.011
0.010
0.009
0.008
0.007
0.007
0.006
0.005
0.005
0.004
0.004
0.003
0.003
0.003
0.002
0.002
0.002
0.001
0.001
0.001
0.001
0.001
0.001
0.001
0.000
0.000
0.000
0.000
0.000
0.000
0.000
0.000
0.000
0.000
0.000
0.000
0.000
0.000
0.000
0.000
0.000
0.000
0.000
0.000
0.000
0.000
0.000
0.000
0.000
0.000
0.000
0.000
0.000
-0.000
-0.000
-0.000
-0.000
-0.000
-0.000
-0.000
-0.000
-0.000
0.000
0.000
0.000
0.000
0.000
0.000
0.000
0.000
0.000
0.000
0.000
0.000
0.000
0.000
0.000
0.000
0
0
0
0
0
0
0
0
0
0
0
0
0
0
0
0
0
0
0
0
0
0
0
0
0
0
0
0
0
0
0
0
0
0
0
0
0
0
0
0
0
0
0
0
0
0
0
0
0
0
0
0
0
0
0
0
0
0
0
0
0
0
0
0
0
0
0
0
0
0
0
0
0
0
0
0
0
0
0
0
0
0
0
0
0
0
0
0
0
0
0
0
0
0
0
0
0
0
0
0
0
0
0
0
0
0
0
0
0
0
0
0
0
0
0
0
0
0
0
0
0
0
0
0
0
0
0
0
0
0
0
0
0
0
0
0
0
0
0
0
0
0
0
0
0
0
0
0
0
0
0
0
0
0
0
0
0
0
0
0
0
0
0
0
0
0
0
0
0
0
0
0
0
0
0
0
0
0
0
0
0
0
0
0
0
0
0
0
0
0
0
0
0
0
0
0
0
0
0
0
0
0
0
0
0
0
0
0
0
0
0
0
0
0
0
0
0
0
0
0
0
0
0
0
0
0
0
0
0
0
0
0
0
0
0
0
0
0
0
0
0
0
0
0
0
0
0
0
0
0
0
0
0
0
0
0
0
0
0
0
0
0
0
0
0
0
0
0
0
0
0
0
0
0
0
0
0
0
0
0
0
0
0
0
0
0
0
0
0
0
0
0
0
0
0
0
0
0
0
0
0
0
0
0
0
0
0
0
0
0
0
0
0
0
0
0
0
0
0
0
0
0
0
0
0
0
0
0
0
0
0
0
0
0
0
0
0
0
0
0
0
0
0
0
0
0
0
0
0
0
0
0
0
0
0
0
0
0
0
0
0
0
0
0
0
0
0
0
0
0
0
0
0
0
0
0
0
0
0
0
0
0
0
0
0
0
0
0
0
0
0
0
0
0
0
0
0
0
0
0
0
0
0
0
0
0
0
0
0
0
0
0
0
0
0
0
0
0
0
0
0
0
0
0
0
0
0
0
0
0
0
0
0
0
0
0
0
0
0
0
0
0
0
0
0
0
0
0
0
0
0
0
0
0
0
0
0
0
0
0
0
0
0
0
0
0
0
0
0
0
0
0
0
0
0
0
0
0
0
0
0
0
0
0
0
0
0
0
0
0
0
0
0
0
$MCA_CAL:
3
-1.4656616 2.9313233 0.00000000000000
$ENER_FIT:
-1.4656616 2.9313233 0.00000000000000
$MCA_CAL_DATA:
3
298 872
597 1749
896 2625
$CAMBIO:
Parent file specification: C:\GADRAS-DRF\Temp\152EU_50.0_50.0_iron_3.50_8.0.pcf
Successful read of spectrum: Yes
Error message: None
Warning: None
Information: None
Neutrons: 0
Number of spectral records in the parent file: 1
Record number of this spectrum in the parent file: 1
Date and time of acquisition read successfully from the original file: Yes
Live time read successfully from the original file: Yes
True time read successfully from the original file: Yes
GADRAS Tag character is:  
Version: 130122
Parent file type: Sandia GADRAS PCF
