$SPEC_ID:
152EU,1uC{13,4.18}
$MEAS_TIM:
3600.00 3600.00
$DATE_MEA:
3/9/2018 5:22:25 PM
$DATA:
0 1193
1124.048
1118.307
1170.383
1704.823
1429.793
1109.176
916.039
732.585
667.561
634.126
753.784
1316.004
2780.309
3874.556
3083.799
1984.700
1210.486
757.697
654.109
696.169
759.385
826.424
886.434
934.871
987.830
1048.521
1102.828
1151.459
1202.270
1258.800
1320.495
1382.255
1427.188
1444.975
1461.732
1502.186
1607.877
1826.141
2189.939
2663.048
3076.341
3168.556
2827.423
2207.374
1569.952
1104.418
844.962
737.570
709.685
707.060
707.840
706.359
702.321
694.480
686.295
681.251
679.025
678.950
680.454
683.171
685.937
687.310
687.016
685.086
681.579
676.708
670.849
664.734
658.748
652.248
644.934
637.165
629.267
621.642
616.520
617.258
627.897
651.941
688.486
734.334
782.631
825.007
851.459
852.962
828.798
781.849
720.329
654.438
592.690
542.310
505.492
480.370
464.792
456.416
452.973
452.450
453.040
453.977
454.767
455.037
454.438
453.042
451.599
451.017
452.856
458.885
472.000
496.161
534.739
589.245
660.588
746.799
843.446
944.412
1037.466
1109.302
1150.444
1155.715
1121.534
1053.013
958.802
848.178
732.221
622.010
524.586
442.745
378.735
331.445
297.981
275.537
261.618
253.847
250.184
249.637
251.369
254.578
258.563
262.613
266.163
268.855
270.365
270.640
270.066
269.036
267.892
266.842
266.089
265.625
265.029
263.868
261.749
258.482
253.883
247.864
240.715
232.792
224.477
216.187
208.382
201.486
195.690
190.956
187.258
184.498
182.446
180.877
179.567
178.398
177.261
176.069
174.775
173.404
171.969
170.489
169.017
167.600
166.281
165.088
164.029
163.123
162.373
161.789
161.396
161.193
161.153
161.203
161.267
161.274
161.196
161.031
160.761
160.370
159.811
159.046
158.017
156.724
155.210
153.536
151.747
149.872
147.957
146.018
144.087
142.189
140.361
138.625
137.006
135.525
134.182
132.986
131.940
131.055
130.312
129.718
129.275
128.972
128.808
128.776
128.880
129.106
129.447
129.892
130.440
131.065
131.732
132.431
133.123
133.775
134.342
134.789
135.064
135.143
135.033
134.752
134.303
133.697
132.946
132.034
130.972
129.757
128.463
127.188
126.040
125.134
124.555
124.366
124.622
125.388
126.713
128.661
131.295
134.678
138.870
143.872
149.581
155.864
162.600
169.651
176.790
183.702
190.091
195.647
200.118
203.326
205.147
205.457
204.115
201.128
196.707
191.048
184.365
176.868
168.811
160.451
152.060
143.907
136.240
129.195
122.861
117.336
112.704
109.025
106.219
104.184
102.801
101.963
101.558
101.497
101.679
102.001
102.381
102.716
102.921
102.907
102.595
101.892
100.746
99.221
97.391
95.341
93.140
90.888
88.640
86.488
84.499
82.759
81.331
80.290
79.693
79.593
80.061
81.145
82.855
85.142
87.980
91.320
95.134
99.336
103.821
108.456
113.129
117.702
122.055
126.055
129.537
132.377
134.414
135.525
135.653
134.855
133.159
130.618
127.258
123.153
118.440
113.243
107.720
102.001
96.236
90.530
85.001
79.744
74.872
70.477
66.658
63.435
60.817
58.825
57.465
56.752
56.687
57.264
58.466
60.291
62.721
65.753
69.342
73.464
78.059
83.085
88.507
94.261
100.264
106.384
112.540
118.589
124.441
129.967
135.085
139.670
143.636
146.882
149.287
150.802
151.402
151.123
149.955
147.927
145.046
141.353
136.926
131.888
126.320
120.346
114.047
107.536
100.903
94.221
87.592
81.089
74.813
68.826
63.173
57.877
52.964
48.454
44.382
40.760
37.566
34.766
32.322
30.195
28.345
26.740
25.345
24.141
23.100
22.205
21.425
20.743
20.135
19.589
19.094
18.632
18.198
17.773
17.349
16.924
16.504
16.088
15.682
15.287
14.909
14.547
14.207
13.893
13.605
13.350
13.129
12.945
12.795
12.676
12.582
12.511
12.458
12.418
12.390
12.369
12.354
12.340
12.328
12.312
12.292
12.275
12.271
12.290
12.345
12.445
12.602
12.829
13.144
13.568
14.121
14.824
15.697
16.761
18.030
19.510
21.206
23.122
25.260
27.625
30.223
33.037
36.035
39.180
42.438
45.766
49.136
52.502
55.826
59.040
62.103
64.942
67.501
69.730
71.562
72.973
73.941
74.481
74.565
74.204
73.378
72.095
70.359
68.225
65.745
62.960
59.931
56.697
53.318
49.834
46.293
42.736
39.207
35.744
32.396
29.199
26.194
23.384
20.772
18.360
16.144
14.128
12.311
10.693
9.264
8.011
6.918
5.972
5.158
4.461
3.867
3.363
2.940
2.587
2.296
2.055
1.856
1.689
1.546
1.421
1.312
1.218
1.135
1.062
0.995
0.933
0.874
0.817
0.762
0.710
0.661
0.613
0.568
0.524
0.483
0.443
0.405
0.370
0.337
0.306
0.278
0.252
0.228
0.207
0.188
0.170
0.155
0.142
0.130
0.119
0.110
0.103
0.096
0.091
0.086
0.082
0.078
0.075
0.073
0.070
0.068
0.066
0.065
0.063
0.062
0.061
0.059
0.058
0.057
0.056
0.054
0.053
0.052
0.051
0.050
0.048
0.047
0.046
0.045
0.044
0.043
0.042
0.041
0.040
0.039
0.038
0.037
0.036
0.036
0.035
0.034
0.034
0.033
0.033
0.032
0.032
0.031
0.031
0.030
0.030
0.029
0.028
0.028
0.027
0.026
0.025
0.024
0.023
0.022
0.021
0.020
0.019
0.018
0.017
0.016
0.015
0.014
0.013
0.012
0.011
0.010
0.009
0.008
0.007
0.007
0.006
0.005
0.005
0.004
0.004
0.003
0.003
0.002
0.002
0.002
0.001
0.001
0.001
0.001
0.001
0.001
0.000
0.000
0.000
0.000
0.000
0.000
0.000
0.000
0.000
0.000
0.000
0.000
0.000
0.000
0.000
0.000
0.000
0.000
0.000
0.000
0.000
0.000
0.000
0.000
-0.000
-0.000
-0.000
-0.000
-0.000
-0.000
-0.000
-0.000
-0.000
0.000
0.000
0.000
0.000
0.000
0.000
0.000
0.000
0.000
0.000
0.000
0.000
0.000
0.000
0
0
0
0
0
0
0
0
0
0
0
0
0
0
0
0
0
0
0
0
0
0
0
0
0
0
0
0
0
0
0
0
0
0
0
0
0
0
0
0
0
0
0
0
0
0
0
0
0
0
0
0
0
0
0
0
0
0
0
0
0
0
0
0
0
0
0
0
0
0
0
0
0
0
0
0
0
0
0
0
0
0
0
0
0
0
0
0
0
0
0
0
0
0
0
0
0
0
0
0
0
0
0
0
0
0
0
0
0
0
0
0
0
0
0
0
0
0
0
0
0
0
0
0
0
0
0
0
0
0
0
0
0
0
0
0
0
0
0
0
0
0
0
0
0
0
0
0
0
0
0
0
0
0
0
0
0
0
0
0
0
0
0
0
0
0
0
0
0
0
0
0
0
0
0
0
0
0
0
0
0
0
0
0
0
0
0
0
0
0
0
0
0
0
0
0
0
0
0
0
0
0
0
0
0
0
0
0
0
0
0
0
0
0
0
0
0
0
0
0
0
0
0
0
0
0
0
0
0
0
0
0
0
0
0
0
0
0
0
0
0
0
0
0
0
0
0
0
0
0
0
0
0
0
0
0
0
0
0
0
0
0
0
0
0
0
0
0
0
0
0
0
0
0
0
0
0
0
0
0
0
0
0
0
0
0
0
0
0
0
0
0
0
0
0
0
0
0
0
0
0
0
0
0
0
0
0
0
0
0
0
0
0
0
0
0
0
0
0
0
0
0
0
0
0
0
0
0
0
0
0
0
0
0
0
0
0
0
0
0
0
0
0
0
0
0
0
0
0
0
0
0
0
0
0
0
0
0
0
0
0
0
0
0
0
0
0
0
0
0
0
0
0
0
0
0
0
0
0
0
0
0
0
0
0
0
0
0
0
0
0
0
0
0
0
0
0
0
0
0
0
0
0
0
0
0
0
0
0
0
0
0
0
0
0
0
0
0
0
0
0
0
0
0
0
0
0
0
0
0
0
0
0
0
0
0
0
0
0
0
0
0
0
0
0
0
0
0
0
0
0
0
0
0
0
0
0
0
0
0
0
0
0
0
0
0
0
0
0
0
0
0
0
0
0
0
0
0
0
0
0
0
0
0
0
0
0
0
0
0
0
0
0
0
0
0
0
0
0
0
0
0
0
0
$MCA_CAL:
3
-1.4656616 2.9313233 0.00000000000000
$ENER_FIT:
-1.4656616 2.9313233 0.00000000000000
$MCA_CAL_DATA:
3
298 872
597 1749
896 2625
$CAMBIO:
Parent file specification: C:\GADRAS-DRF\Temp\152EU_150.0_50.0_alum_4.18_7.5.pcf
Successful read of spectrum: Yes
Error message: None
Warning: None
Information: None
Neutrons: 0
Number of spectral records in the parent file: 1
Record number of this spectrum in the parent file: 1
Date and time of acquisition read successfully from the original file: Yes
Live time read successfully from the original file: Yes
True time read successfully from the original file: Yes
GADRAS Tag character is:  
Version: 130122
Parent file type: Sandia GADRAS PCF
