$SPEC_ID:
152EU,1uC{82,0.51}
$MEAS_TIM:
3600.00 3600.00
$DATE_MEA:
3/9/2018 5:22:25 PM
$DATA:
0 1193
1416.886
1328.446
1213.511
1112.683
978.223
863.819
759.517
672.463
602.756
541.280
505.874
479.205
465.593
465.622
461.449
448.802
415.301
387.506
380.308
382.903
391.108
404.117
414.306
411.712
407.216
407.554
412.527
415.131
417.005
426.690
445.142
465.030
480.038
488.685
496.446
510.203
542.847
616.926
758.122
960.365
1152.316
1220.992
1117.102
897.941
673.461
525.928
459.896
445.482
454.217
468.275
474.438
472.443
464.854
454.111
445.625
441.685
442.113
445.795
452.183
460.452
469.073
476.155
480.765
483.223
483.243
480.983
477.884
474.753
471.601
467.544
462.227
456.342
449.955
443.143
438.742
440.827
454.413
483.883
532.260
596.989
670.085
738.103
785.049
799.257
773.636
715.690
638.388
556.716
484.522
427.882
389.533
366.620
354.817
350.470
350.338
352.554
355.825
359.353
362.565
364.882
365.685
364.877
363.035
361.225
361.634
366.891
381.163
409.128
456.003
527.368
626.109
751.153
898.702
1055.579
1205.860
1330.838
1409.521
1427.453
1385.727
1288.606
1150.321
990.508
827.187
674.446
545.144
443.093
366.475
312.671
276.904
254.090
240.508
233.889
232.134
234.065
238.847
245.586
253.274
260.866
267.509
272.560
275.464
276.366
275.919
274.762
273.571
273.001
273.511
274.728
276.043
276.831
276.302
273.676
268.464
260.891
251.307
240.218
228.530
217.180
206.932
198.110
190.995
185.699
181.966
179.474
177.892
176.908
176.196
175.477
174.632
173.615
172.372
170.939
169.387
167.782
166.199
164.697
163.332
162.150
161.163
160.390
159.836
159.526
159.499
159.767
160.276
160.901
161.515
162.028
162.441
162.782
163.049
163.169
163.015
162.477
161.483
160.096
158.388
156.444
154.318
152.055
149.729
147.378
145.047
142.771
140.600
138.561
136.691
135.035
133.614
132.417
131.408
130.564
129.850
129.291
128.918
128.748
128.790
129.022
129.431
129.987
130.684
131.520
132.508
133.642
134.883
136.197
137.522
138.808
139.989
141.006
141.783
142.262
142.430
142.313
141.918
141.261
140.361
139.207
137.815
136.193
134.439
132.678
131.045
129.681
128.689
128.162
128.193
128.880
130.325
132.655
135.996
140.474
146.159
153.013
160.997
170.055
180.083
190.743
201.652
212.405
222.609
231.818
239.589
245.426
248.884
249.741
248.089
244.065
237.819
229.521
219.579
208.457
196.639
184.576
172.665
161.221
150.560
140.991
132.770
125.919
120.388
116.134
113.109
111.212
110.255
110.056
110.427
111.196
112.216
113.350
114.487
115.487
116.233
116.616
116.541
115.896
114.582
112.616
110.114
107.211
104.027
100.713
97.366
94.122
91.089
88.392
86.133
84.421
83.339
82.972
83.419
84.741
86.944
89.995
93.888
98.594
104.072
110.172
116.756
123.660
130.745
137.816
144.636
150.956
156.496
161.022
164.309
166.302
166.931
166.173
163.965
160.324
155.399
149.409
142.569
135.067
127.131
118.948
110.735
102.675
94.989
87.857
81.386
75.610
70.585
66.347
62.938
60.382
58.665
57.782
57.716
58.464
60.009
62.352
65.478
69.391
74.070
79.524
85.682
92.474
99.841
107.696
115.984
124.563
133.293
141.958
150.403
158.425
165.876
172.583
178.431
183.285
186.987
189.432
190.527
190.328
188.839
186.115
182.182
177.092
170.948
163.940
156.200
147.916
139.223
130.289
121.243
112.195
103.290
94.635
86.372
78.569
71.280
64.544
58.403
52.892
48.054
43.853
40.227
37.113
34.446
32.163
30.199
28.521
27.094
25.890
24.874
24.021
23.295
22.674
22.129
21.637
21.173
20.709
20.232
19.735
19.226
18.705
18.179
17.647
17.117
16.595
16.091
15.610
15.162
14.757
14.398
14.089
13.830
13.620
13.460
13.351
13.290
13.270
13.279
13.308
13.346
13.382
13.406
13.414
13.407
13.380
13.335
13.271
13.186
13.090
13.006
12.951
12.946
13.013
13.170
13.444
13.863
14.462
15.272
16.326
17.654
19.288
21.240
23.518
26.126
29.072
32.367
36.011
39.985
44.231
48.695
53.315
58.041
62.809
67.565
72.210
76.672
80.842
84.631
87.957
90.716
92.867
94.374
95.249
95.450
94.980
93.810
91.949
89.437
86.363
82.805
78.830
74.529
69.967
65.232
60.382
55.495
50.637
45.878
41.284
36.929
32.846
29.045
25.526
22.299
19.365
16.729
14.395
12.349
10.569
9.030
7.711
6.587
5.637
4.836
4.168
3.616
3.166
2.800
2.505
2.264
2.062
1.892
1.751
1.632
1.531
1.444
1.365
1.290
1.219
1.150
1.083
1.018
0.955
0.893
0.832
0.772
0.714
0.657
0.602
0.550
0.500
0.454
0.410
0.370
0.332
0.298
0.267
0.240
0.215
0.194
0.175
0.159
0.146
0.134
0.124
0.116
0.109
0.102
0.097
0.093
0.090
0.087
0.084
0.082
0.080
0.078
0.077
0.075
0.074
0.072
0.071
0.070
0.068
0.067
0.066
0.064
0.063
0.061
0.060
0.058
0.057
0.055
0.054
0.052
0.051
0.050
0.048
0.047
0.046
0.045
0.044
0.043
0.042
0.041
0.041
0.040
0.039
0.039
0.038
0.038
0.038
0.037
0.037
0.036
0.036
0.035
0.034
0.033
0.033
0.032
0.031
0.030
0.028
0.027
0.026
0.024
0.023
0.022
0.020
0.019
0.017
0.016
0.015
0.013
0.012
0.011
0.010
0.009
0.008
0.007
0.006
0.005
0.005
0.004
0.003
0.003
0.002
0.002
0.002
0.001
0.001
0.001
0.001
0.001
0.001
0.000
0.000
0.000
0.000
0.000
0.000
0.000
0.000
0.000
0.000
0.000
0.000
0.000
0.000
0.000
0.000
0.000
0.000
0.000
-0.000
-0.000
-0.000
-0.000
-0.000
-0.000
-0.000
-0.000
0.000
0.000
0.000
0.000
0.000
0.000
0.000
0.000
-0.000
-0.000
-0.000
-0.000
-0.000
-0.000
-0.000
-0.000
-0.000
0.000
0.000
0.000
0.000
0.000
0
0
0
0
0
0
0
0
0
0
0
0
0
0
0
0
0
0
0
0
0
0
0
0
0
0
0
0
0
0
0
0
0
0
0
0
0
0
0
0
0
0
0
0
0
0
0
0
0
0
0
0
0
0
0
0
0
0
0
0
0
0
0
0
0
0
0
0
0
0
0
0
0
0
0
0
0
0
0
0
0
0
0
0
0
0
0
0
0
0
0
0
0
0
0
0
0
0
0
0
0
0
0
0
0
0
0
0
0
0
0
0
0
0
0
0
0
0
0
0
0
0
0
0
0
0
0
0
0
0
0
0
0
0
0
0
0
0
0
0
0
0
0
0
0
0
0
0
0
0
0
0
0
0
0
0
0
0
0
0
0
0
0
0
0
0
0
0
0
0
0
0
0
0
0
0
0
0
0
0
0
0
0
0
0
0
0
0
0
0
0
0
0
0
0
0
0
0
0
0
0
0
0
0
0
0
0
0
0
0
0
0
0
0
0
0
0
0
0
0
0
0
0
0
0
0
0
0
0
0
0
0
0
0
0
0
0
0
0
0
0
0
0
0
0
0
0
0
0
0
0
0
0
0
0
0
0
0
0
0
0
0
0
0
0
0
0
0
0
0
0
0
0
0
0
0
0
0
0
0
0
0
0
0
0
0
0
0
0
0
0
0
0
0
0
0
0
0
0
0
0
0
0
0
0
0
0
0
0
0
0
0
0
0
0
0
0
0
0
0
0
0
0
0
0
0
0
0
0
0
0
0
0
0
0
0
0
0
0
0
0
0
0
0
0
0
0
0
0
0
0
0
0
0
0
0
0
0
0
0
0
0
0
0
0
0
0
0
0
0
0
0
0
0
0
0
0
0
0
0
0
0
0
0
0
0
0
0
0
0
0
0
0
0
0
0
0
0
0
0
0
0
0
0
0
0
0
0
0
0
0
0
0
0
0
0
0
0
0
0
0
0
0
0
0
0
0
0
0
0
0
0
0
0
0
0
0
0
0
0
0
0
0
0
0
0
0
0
0
0
0
0
0
0
0
0
0
0
0
0
0
0
0
0
0
0
0
0
0
0
0
0
0
0
0
0
0
0
0
0
0
0
0
0
0
0
0
0
0
0
0
0
0
0
0
0
0
0
0
0
0
0
0
$MCA_CAL:
3
-1.4656616 2.9313233 0.00000000000000
$ENER_FIT:
-1.4656616 2.9313233 0.00000000000000
$MCA_CAL_DATA:
3
298 872
597 1749
896 2625
$CAMBIO:
Parent file specification: C:\GADRAS-DRF\Temp\152EU_125.0_50.0_lead_0.51_7.0.pcf
Successful read of spectrum: Yes
Error message: None
Warning: None
Information: None
Neutrons: 0
Number of spectral records in the parent file: 1
Record number of this spectrum in the parent file: 1
Date and time of acquisition read successfully from the original file: Yes
Live time read successfully from the original file: Yes
True time read successfully from the original file: Yes
GADRAS Tag character is:  
Version: 130122
Parent file type: Sandia GADRAS PCF
