$SPEC_ID:
152EU,1uC{26,6.28}
$MEAS_TIM:
3600.00 3600.00
$DATE_MEA:
3/9/2018 5:22:25 PM
$DATA:
0 1193
1249.134
1209.699
1137.156
1475.928
1360.768
1177.597
1022.538
895.803
797.016
712.617
663.591
623.322
587.398
562.963
548.869
542.102
540.104
546.117
563.189
587.064
622.113
660.999
693.572
714.212
735.047
758.099
784.111
805.147
820.957
841.539
869.555
904.760
937.093
962.753
993.558
1039.278
1114.878
1221.480
1345.775
1475.789
1570.282
1582.382
1492.073
1330.087
1149.038
997.593
895.807
843.025
826.869
831.959
842.953
852.581
857.641
855.030
844.587
831.506
819.213
808.447
799.579
792.774
787.415
782.518
777.453
771.827
765.700
759.357
753.249
747.923
743.234
738.572
733.606
728.280
722.986
718.830
717.030
718.845
725.416
736.530
751.348
767.904
783.000
793.283
795.287
785.741
764.718
734.582
697.967
658.055
618.096
580.740
548.250
522.305
502.513
488.020
477.863
470.969
466.252
462.998
460.667
458.861
457.643
457.252
458.212
461.800
469.477
482.341
500.837
525.349
556.287
594.212
639.624
691.229
744.665
795.399
838.836
870.501
885.860
882.120
860.582
823.107
772.055
711.224
644.868
577.105
511.465
451.125
399.200
356.876
323.284
297.488
278.489
265.211
256.527
251.368
248.857
248.229
248.741
249.771
250.986
252.083
252.787
253.032
252.909
252.487
251.832
250.914
249.699
248.155
246.227
243.864
240.986
237.552
233.577
229.115
224.243
219.025
213.614
208.171
202.875
197.871
193.252
189.071
185.399
182.277
179.633
177.388
175.448
173.740
172.203
170.797
169.467
168.180
166.926
165.706
164.534
163.412
162.347
161.348
160.423
159.591
158.845
158.185
157.621
157.140
156.738
156.386
156.056
155.718
155.340
154.907
154.385
153.754
152.986
152.084
151.053
149.910
148.666
147.346
145.958
144.506
143.022
141.509
139.986
138.473
137.001
135.585
134.247
133.008
131.862
130.815
129.869
129.037
128.308
127.693
127.203
126.833
126.587
126.451
126.416
126.460
126.570
126.728
126.932
127.162
127.399
127.647
127.882
128.085
128.234
128.316
128.303
128.182
127.958
127.654
127.273
126.828
126.345
125.829
125.318
124.831
124.401
124.047
123.814
123.766
123.951
124.429
125.253
126.464
128.057
130.030
132.384
135.115
138.212
141.606
145.229
148.993
152.822
156.635
160.337
163.792
166.873
169.448
171.403
172.606
173.051
172.753
171.710
169.933
167.442
164.269
160.518
156.291
151.703
146.849
141.839
136.774
131.759
126.895
122.283
118.032
114.226
110.876
107.952
105.428
103.270
101.448
99.928
98.672
97.627
96.738
95.968
95.260
94.572
93.875
93.156
92.390
91.558
90.645
89.633
88.553
87.437
86.344
85.295
84.347
83.530
82.888
82.438
82.222
82.266
82.594
83.246
84.215
85.482
87.006
88.774
90.747
92.907
95.203
97.583
99.972
102.313
104.526
106.551
108.329
109.798
110.936
111.693
112.043
111.931
111.335
110.236
108.687
106.723
104.400
101.772
98.872
95.765
92.502
89.163
85.803
82.506
79.331
76.356
73.632
71.209
69.112
67.369
66.019
65.086
64.608
64.594
65.037
65.911
67.207
68.899
70.979
73.415
76.196
79.256
82.545
86.023
89.625
93.316
97.024
100.718
104.304
107.734
110.923
113.822
116.343
118.433
120.053
121.181
121.832
121.981
121.645
120.798
119.453
117.613
115.321
112.603
109.519
106.090
102.375
98.398
94.212
89.869
85.407
80.892
76.363
71.885
67.495
63.252
59.179
55.287
51.583
48.084
44.797
41.731
38.901
36.308
33.943
31.788
29.837
28.072
26.484
25.056
23.782
22.643
21.629
20.726
19.920
19.201
18.551
17.963
17.421
16.924
16.465
16.044
15.653
15.292
14.956
14.642
14.346
14.069
13.813
13.574
13.356
13.156
12.977
12.815
12.674
12.552
12.452
12.371
12.311
12.274
12.257
12.264
12.296
12.359
12.456
12.594
12.775
13.007
13.291
13.634
14.042
14.522
15.082
15.728
16.470
17.312
18.264
19.331
20.515
21.810
23.214
24.720
26.326
28.024
29.809
31.682
33.624
35.620
37.646
39.682
41.701
43.688
45.616
47.468
49.215
50.849
52.340
53.668
54.820
55.769
56.502
56.988
57.225
57.195
56.920
56.401
55.659
54.695
53.527
52.167
50.618
48.902
47.034
45.044
42.949
40.777
38.551
36.295
34.028
31.779
29.561
27.389
25.270
23.218
21.243
19.353
17.563
15.881
14.318
12.874
11.544
10.323
9.208
8.192
7.271
6.441
5.695
5.031
4.441
3.921
3.463
3.063
2.714
2.410
2.146
1.915
1.712
1.535
1.380
1.245
1.128
1.026
0.938
0.860
0.791
0.728
0.670
0.617
0.569
0.525
0.484
0.447
0.413
0.381
0.352
0.324
0.299
0.275
0.253
0.233
0.214
0.197
0.182
0.167
0.154
0.143
0.132
0.122
0.114
0.106
0.099
0.093
0.088
0.083
0.078
0.074
0.071
0.068
0.065
0.062
0.060
0.058
0.056
0.055
0.053
0.051
0.050
0.049
0.048
0.046
0.045
0.044
0.043
0.042
0.041
0.040
0.039
0.038
0.038
0.037
0.036
0.035
0.034
0.034
0.033
0.032
0.032
0.031
0.030
0.030
0.029
0.028
0.027
0.027
0.026
0.025
0.025
0.024
0.023
0.023
0.022
0.021
0.020
0.020
0.019
0.018
0.017
0.016
0.016
0.015
0.014
0.013
0.013
0.012
0.011
0.010
0.010
0.009
0.008
0.008
0.007
0.006
0.006
0.005
0.005
0.004
0.004
0.004
0.003
0.003
0.003
0.002
0.002
0.002
0.002
0.001
0.001
0.001
0.001
0.001
0.001
0.001
0.001
0.000
0.000
0.000
0.000
0.000
0.000
0.000
0.000
0.000
0.000
0.000
0.000
0.000
0.000
0.000
0.000
0.000
0.000
0.000
0.000
0.000
0.000
0.000
0.000
0.000
0.000
0.000
0.000
0.000
0.000
0.000
-0.000
-0.000
-0.000
-0.000
-0.000
-0.000
-0.000
-0.000
-0.000
-0.000
-0.000
0.000
0.000
0.000
0.000
0.000
0.000
0.000
0.000
0.000
0.000
0.000
-0.000
-0.000
-0.000
-0.000
-0.000
-0.000
-0.000
-0.000
-0.000
-0.000
-0.000
0.000
0.000
0.000
0.000
0.000
0.000
0
0
0
0
0
0
0
0
0
0
0
0
0
0
0
0
0
0
0
0
0
0
0
0
0
0
0
0
0
0
0
0
0
0
0
0
0
0
0
0
0
0
0
0
0
0
0
0
0
0
0
0
0
0
0
0
0
0
0
0
0
0
0
0
0
0
0
0
0
0
0
0
0
0
0
0
0
0
0
0
0
0
0
0
0
0
0
0
0
0
0
0
0
0
0
0
0
0
0
0
0
0
0
0
0
0
0
0
0
0
0
0
0
0
0
0
0
0
0
0
0
0
0
0
0
0
0
0
0
0
0
0
0
0
0
0
0
0
0
0
0
0
0
0
0
0
0
0
0
0
0
0
0
0
0
0
0
0
0
0
0
0
0
0
0
0
0
0
0
0
0
0
0
0
0
0
0
0
0
0
0
0
0
0
0
0
0
0
0
0
0
0
0
0
0
0
0
0
0
0
0
0
0
0
0
0
0
0
0
0
0
0
0
0
0
0
0
0
0
0
0
0
0
0
0
0
0
0
0
0
0
0
0
0
0
0
0
0
0
0
0
0
0
0
0
0
0
0
0
0
0
0
0
0
0
0
0
0
0
0
0
0
0
0
0
0
0
0
0
0
0
0
0
0
0
0
0
0
0
0
0
0
0
0
0
0
0
0
0
0
0
0
0
0
0
0
0
0
0
0
0
0
0
0
0
0
0
0
0
0
0
0
0
0
0
0
0
0
0
0
0
0
0
0
0
0
0
0
0
0
0
0
0
0
0
0
0
0
0
0
0
0
0
0
0
0
0
0
0
0
0
0
0
0
0
0
0
0
0
0
0
0
0
0
0
0
0
0
0
0
0
0
0
0
0
0
0
0
0
0
0
0
0
0
0
0
0
0
0
0
0
0
0
0
0
0
0
0
0
0
0
0
0
0
0
0
0
0
0
0
0
0
0
0
0
0
0
0
0
0
0
0
0
0
0
0
0
0
0
0
0
0
0
0
0
0
0
0
0
0
0
0
0
0
0
0
0
0
0
0
0
0
0
0
0
0
0
0
0
0
0
0
0
0
0
0
0
0
0
0
0
0
0
0
$MCA_CAL:
3
-1.4656616 2.9313233 0.00000000000000
$ENER_FIT:
-1.4656616 2.9313233 0.00000000000000
$MCA_CAL_DATA:
3
298 872
597 1749
896 2625
$CAMBIO:
Parent file specification: C:\GADRAS-DRF\Temp\152EU_50.0_50.0_iron_6.28_9.0.pcf
Successful read of spectrum: Yes
Error message: None
Warning: None
Information: None
Neutrons: 0
Number of spectral records in the parent file: 1
Record number of this spectrum in the parent file: 1
Date and time of acquisition read successfully from the original file: Yes
Live time read successfully from the original file: Yes
True time read successfully from the original file: Yes
GADRAS Tag character is:  
Version: 130122
Parent file type: Sandia GADRAS PCF
