$SPEC_ID:
152EU,1uC{13,7.49}
$MEAS_TIM:
3600.00 3600.00
$DATE_MEA:
3/9/2018 5:22:25 PM
$DATA:
0 1193
881.266
852.268
802.123
1284.423
1103.470
942.001
804.370
685.672
614.594
556.256
542.504
606.807
891.409
1179.708
1057.017
921.111
766.522
699.422
748.913
835.435
911.826
990.773
1060.016
1101.975
1149.729
1205.992
1257.803
1298.653
1335.139
1379.820
1431.922
1486.237
1523.152
1526.619
1527.669
1536.951
1572.997
1675.570
1875.698
2222.672
2578.997
2667.634
2331.254
1782.597
1285.654
980.716
854.780
819.778
816.341
820.406
820.538
815.129
805.357
792.555
780.268
770.761
763.978
759.017
755.689
753.728
752.156
749.678
745.617
740.849
735.924
729.387
722.161
715.452
708.520
700.796
692.221
683.296
673.225
660.872
648.279
638.792
636.543
645.634
668.850
703.922
745.511
784.936
810.740
810.720
783.247
733.030
670.866
608.401
555.735
517.982
492.926
477.447
468.202
463.153
461.364
461.573
462.272
462.852
463.214
462.998
461.642
459.021
455.350
451.315
448.037
446.669
448.472
456.176
474.361
507.111
557.206
625.932
710.154
804.701
896.948
971.917
1016.856
1020.832
981.069
905.833
805.453
693.655
584.382
486.836
407.772
349.450
308.266
280.324
262.164
250.531
243.335
239.497
238.107
238.779
241.186
244.838
249.147
253.452
256.947
258.820
258.886
257.518
255.162
252.398
249.872
248.061
247.198
247.445
248.294
248.800
248.077
245.757
241.598
235.568
228.127
219.780
211.123
202.818
195.521
189.497
184.760
181.274
178.851
177.218
176.100
175.272
174.510
173.634
172.596
171.396
170.030
168.544
166.980
165.380
163.809
162.320
160.952
159.706
158.564
157.533
156.647
155.962
155.531
155.291
155.157
155.046
154.933
154.829
154.738
154.631
154.420
154.025
153.391
152.523
151.413
150.073
148.540
146.873
145.112
143.284
141.439
139.597
137.787
136.027
134.343
132.747
131.263
129.926
128.750
127.730
126.833
126.039
125.315
124.680
124.156
123.750
123.463
123.283
123.205
123.217
123.325
123.536
123.863
124.293
124.796
125.366
125.966
126.554
127.077
127.494
127.755
127.838
127.715
127.372
126.802
126.026
125.074
123.954
122.701
121.334
119.888
118.392
116.927
115.591
114.467
113.632
113.125
112.989
113.251
113.989
115.340
117.445
120.445
124.402
129.289
135.060
141.671
148.945
156.569
164.200
171.510
178.138
183.714
187.830
190.117
190.403
188.759
185.286
180.096
173.381
165.510
156.865
147.835
138.763
129.935
121.622
114.097
107.579
102.092
97.617
94.126
91.588
89.909
88.972
88.651
88.825
89.382
90.226
91.251
92.349
93.427
94.357
95.024
95.307
95.108
94.418
93.267
91.692
89.716
87.409
84.856
82.175
79.444
76.772
74.247
71.968
70.017
68.496
67.464
66.953
67.010
67.666
68.956
70.865
73.394
76.522
80.244
84.494
89.178
94.181
99.403
104.715
109.925
114.811
119.127
122.659
125.212
126.728
127.136
126.402
124.465
121.387
117.319
112.445
106.944
100.974
94.728
88.377
82.110
76.094
70.505
65.403
60.824
56.789
53.337
50.486
48.221
46.528
45.383
44.769
44.668
45.089
46.030
47.505
49.512
52.063
55.144
58.765
62.909
67.572
72.738
78.320
84.245
90.412
96.761
103.166
109.495
115.570
121.250
126.355
130.754
134.363
137.094
138.901
139.692
139.431
138.123
135.843
132.645
128.593
123.734
118.198
112.105
105.614
98.849
91.964
85.077
78.269
71.645
65.281
59.280
53.704
48.587
43.941
39.782
36.122
32.978
30.309
28.060
26.174
24.591
23.255
22.118
21.164
20.369
19.715
19.179
18.746
18.388
18.085
17.813
17.548
17.270
16.961
16.629
16.270
15.889
15.486
15.066
14.632
14.197
13.767
13.353
12.961
12.600
12.275
11.988
11.745
11.550
11.407
11.313
11.264
11.251
11.270
11.314
11.375
11.446
11.515
11.574
11.610
11.616
11.582
11.512
11.412
11.284
11.133
10.964
10.786
10.619
10.485
10.403
10.395
10.480
10.684
11.032
11.553
12.273
13.221
14.422
15.895
17.645
19.678
22.004
24.625
27.549
30.753
34.189
37.803
41.553
45.382
49.248
53.072
56.782
60.278
63.473
66.290
68.631
70.452
71.718
72.434
72.558
72.089
70.997
69.309
67.080
64.389
61.308
57.899
54.245
50.405
46.457
42.459
38.486
34.602
30.877
27.365
24.093
21.063
18.284
15.760
13.500
11.508
9.774
8.277
6.995
5.906
4.987
4.217
3.577
3.052
2.625
2.284
2.013
1.797
1.623
1.483
1.371
1.282
1.211
1.152
1.100
1.050
1.003
0.958
0.913
0.869
0.825
0.779
0.733
0.686
0.639
0.592
0.546
0.501
0.457
0.414
0.373
0.335
0.299
0.266
0.237
0.211
0.187
0.167
0.149
0.134
0.120
0.109
0.100
0.092
0.085
0.080
0.076
0.072
0.069
0.066
0.064
0.063
0.061
0.060
0.059
0.058
0.057
0.056
0.055
0.054
0.053
0.052
0.051
0.051
0.050
0.049
0.048
0.046
0.045
0.044
0.043
0.042
0.041
0.039
0.038
0.037
0.036
0.035
0.034
0.033
0.032
0.031
0.031
0.030
0.030
0.029
0.029
0.028
0.028
0.028
0.028
0.028
0.028
0.027
0.027
0.027
0.026
0.026
0.025
0.025
0.024
0.023
0.022
0.022
0.020
0.019
0.018
0.017
0.016
0.015
0.014
0.012
0.011
0.010
0.009
0.008
0.007
0.006
0.006
0.005
0.004
0.004
0.003
0.003
0.002
0.002
0.002
0.001
0.001
0.001
0.001
0.001
0.000
0.000
0.000
0.000
0.000
0.000
0.000
0.000
0.000
0.000
0.000
0.000
0.000
0.000
0.000
0.000
0.000
0.000
0.000
0.000
0.000
0.000
0.000
0.000
-0.000
-0.000
-0.000
-0.000
-0.000
-0.000
-0.000
0.000
0.000
0.000
0.000
0.000
0.000
0.000
0.000
-0.000
-0.000
-0.000
-0.000
-0.000
-0.000
-0.000
-0.000
0.000
0.000
0.000
0.000
0
0
0
0
0
0
0
0
0
0
0
0
0
0
0
0
0
0
0
0
0
0
0
0
0
0
0
0
0
0
0
0
0
0
0
0
0
0
0
0
0
0
0
0
0
0
0
0
0
0
0
0
0
0
0
0
0
0
0
0
0
0
0
0
0
0
0
0
0
0
0
0
0
0
0
0
0
0
0
0
0
0
0
0
0
0
0
0
0
0
0
0
0
0
0
0
0
0
0
0
0
0
0
0
0
0
0
0
0
0
0
0
0
0
0
0
0
0
0
0
0
0
0
0
0
0
0
0
0
0
0
0
0
0
0
0
0
0
0
0
0
0
0
0
0
0
0
0
0
0
0
0
0
0
0
0
0
0
0
0
0
0
0
0
0
0
0
0
0
0
0
0
0
0
0
0
0
0
0
0
0
0
0
0
0
0
0
0
0
0
0
0
0
0
0
0
0
0
0
0
0
0
0
0
0
0
0
0
0
0
0
0
0
0
0
0
0
0
0
0
0
0
0
0
0
0
0
0
0
0
0
0
0
0
0
0
0
0
0
0
0
0
0
0
0
0
0
0
0
0
0
0
0
0
0
0
0
0
0
0
0
0
0
0
0
0
0
0
0
0
0
0
0
0
0
0
0
0
0
0
0
0
0
0
0
0
0
0
0
0
0
0
0
0
0
0
0
0
0
0
0
0
0
0
0
0
0
0
0
0
0
0
0
0
0
0
0
0
0
0
0
0
0
0
0
0
0
0
0
0
0
0
0
0
0
0
0
0
0
0
0
0
0
0
0
0
0
0
0
0
0
0
0
0
0
0
0
0
0
0
0
0
0
0
0
0
0
0
0
0
0
0
0
0
0
0
0
0
0
0
0
0
0
0
0
0
0
0
0
0
0
0
0
0
0
0
0
0
0
0
0
0
0
0
0
0
0
0
0
0
0
0
0
0
0
0
0
0
0
0
0
0
0
0
0
0
0
0
0
0
0
0
0
0
0
0
0
0
0
0
0
0
0
0
0
0
0
0
0
0
0
0
0
0
0
0
0
0
0
0
0
0
0
0
0
0
0
0
0
0
0
0
0
0
0
0
0
0
0
0
0
0
0
0
0
0
0
0
0
0
0
0
0
0
0
0
0
0
0
0
0
0
0
0
0
$MCA_CAL:
3
-1.4656616 2.9313233 0.00000000000000
$ENER_FIT:
-1.4656616 2.9313233 0.00000000000000
$MCA_CAL_DATA:
3
298 872
597 1749
896 2625
$CAMBIO:
Parent file specification: C:\GADRAS-DRF\Temp\152EU_125.0_50.0_alum_7.49_6.5.pcf
Successful read of spectrum: Yes
Error message: None
Warning: None
Information: None
Neutrons: 0
Number of spectral records in the parent file: 1
Record number of this spectrum in the parent file: 1
Date and time of acquisition read successfully from the original file: Yes
Live time read successfully from the original file: Yes
True time read successfully from the original file: Yes
GADRAS Tag character is:  
Version: 130122
Parent file type: Sandia GADRAS PCF
