$SPEC_ID:
152EU,1uC{82,0.92}
$MEAS_TIM:
3600.00 3600.00
$DATE_MEA:
3/9/2018 5:22:25 PM
$DATA:
0 1193
1678.855
1574.399
1449.902
1371.385
1210.590
1069.533
942.274
836.793
748.427
669.705
625.924
588.153
550.892
525.019
510.073
500.577
494.160
493.805
501.495
514.407
531.550
549.799
563.848
564.305
558.076
553.202
549.100
547.476
545.513
544.061
544.651
547.157
550.957
554.567
559.271
567.117
581.224
604.468
637.166
674.470
704.858
716.222
702.636
671.661
637.955
615.138
607.756
615.579
634.438
655.830
674.522
688.015
692.435
686.404
673.153
656.734
641.072
627.958
618.112
611.345
606.773
602.802
598.688
594.602
590.450
585.977
581.926
579.535
578.173
576.255
573.561
570.696
568.463
567.804
570.021
576.697
589.232
608.689
634.860
664.710
694.428
718.406
730.820
728.360
709.359
675.062
630.945
582.607
534.831
492.037
456.635
429.276
410.009
397.255
389.137
384.238
381.482
379.942
379.097
378.571
378.332
378.860
380.772
385.531
395.123
411.586
437.265
474.594
525.191
589.122
666.146
753.576
845.457
935.664
1016.568
1079.333
1115.345
1121.255
1097.639
1045.381
969.488
877.717
777.923
676.956
580.979
495.952
424.783
367.258
322.980
290.904
268.941
254.946
246.947
243.557
243.460
245.408
248.597
252.358
256.050
259.306
262.010
264.036
265.352
266.078
266.377
266.378
266.059
265.328
264.070
262.182
259.494
255.869
251.172
245.464
238.944
231.794
224.244
216.596
209.190
202.343
196.260
190.963
186.477
182.819
179.895
177.561
175.660
174.057
172.650
171.369
170.132
168.887
167.641
166.416
165.248
164.157
163.145
162.218
161.376
160.639
160.028
159.577
159.330
159.290
159.400
159.580
159.752
159.847
159.840
159.733
159.510
159.165
158.670
158.003
157.120
155.994
154.627
153.076
151.380
149.578
147.731
145.853
143.975
142.119
140.320
138.596
136.974
135.491
134.165
133.014
132.031
131.223
130.568
130.068
129.729
129.544
129.515
129.640
129.924
130.343
130.881
131.518
132.244
133.029
133.834
134.644
135.417
136.126
136.741
137.251
137.622
137.837
137.876
137.753
137.475
137.055
136.517
135.867
135.164
134.457
133.805
133.255
132.869
132.745
132.969
133.637
134.840
136.661
139.111
142.203
145.950
150.361
155.425
161.043
167.109
173.501
180.106
186.794
193.374
199.605
205.262
210.111
213.946
216.622
218.106
218.359
217.325
214.957
211.306
206.526
200.801
194.306
187.233
179.750
172.057
164.351
156.830
149.691
143.125
137.242
132.030
127.485
123.596
120.364
117.763
115.730
114.179
113.036
112.214
111.624
111.197
110.839
110.470
110.004
109.363
108.463
107.300
105.930
104.395
102.750
101.033
99.318
97.644
96.097
94.734
93.634
92.850
92.456
92.478
92.935
93.863
95.278
97.215
99.663
102.575
105.871
109.489
113.342
117.376
121.495
125.597
129.544
133.222
136.519
139.292
141.457
142.959
143.784
143.883
143.249
141.840
139.656
136.747
133.220
129.178
124.700
119.901
114.865
109.707
104.518
99.421
94.513
89.910
85.706
81.995
78.812
76.189
74.173
72.793
72.090
72.089
72.784
74.138
76.138
78.745
81.947
85.699
89.981
94.700
99.788
105.184
110.801
116.585
122.435
128.287
133.995
139.478
144.602
149.284
153.388
156.850
159.634
161.692
163.020
163.563
163.319
162.233
160.342
157.699
154.374
150.409
145.891
140.859
135.399
129.560
123.439
117.113
110.645
104.134
97.639
91.255
85.016
78.978
73.179
67.664
62.467
57.641
53.215
49.186
45.533
42.233
39.262
36.593
34.210
32.082
30.194
28.518
27.040
25.731
24.575
23.547
22.626
21.800
21.053
20.381
19.768
19.207
18.684
18.193
17.723
17.277
16.855
16.457
16.082
15.731
15.407
15.106
14.832
14.583
14.359
14.159
13.986
13.836
13.712
13.612
13.537
13.488
13.463
13.464
13.489
13.540
13.618
13.731
13.888
14.101
14.376
14.724
15.155
15.677
16.302
17.042
17.911
18.918
20.078
21.402
22.904
24.593
26.468
28.520
30.741
33.120
35.648
38.320
41.121
44.043
47.052
50.110
53.175
56.216
59.187
62.060
64.783
67.339
69.681
71.781
73.618
75.150
76.359
77.199
77.662
77.709
77.369
76.649
75.580
74.170
72.446
70.427
68.125
65.573
62.798
59.849
56.754
53.560
50.305
47.028
43.762
40.552
37.410
34.359
31.407
28.576
25.880
23.332
20.951
18.749
16.728
14.878
13.194
11.667
10.290
9.053
7.951
6.974
6.114
5.361
4.707
4.141
3.653
3.233
2.872
2.560
2.288
2.051
1.846
1.669
1.517
1.385
1.270
1.169
1.079
0.996
0.920
0.851
0.788
0.729
0.676
0.626
0.579
0.535
0.494
0.455
0.419
0.384
0.353
0.323
0.296
0.271
0.248
0.227
0.209
0.192
0.176
0.163
0.151
0.140
0.130
0.121
0.114
0.107
0.101
0.096
0.091
0.087
0.084
0.081
0.078
0.075
0.073
0.071
0.069
0.067
0.065
0.064
0.062
0.061
0.059
0.058
0.056
0.055
0.054
0.052
0.051
0.050
0.049
0.048
0.047
0.046
0.045
0.044
0.043
0.042
0.041
0.040
0.040
0.039
0.038
0.037
0.036
0.036
0.035
0.034
0.033
0.032
0.032
0.031
0.030
0.029
0.028
0.027
0.026
0.025
0.024
0.023
0.022
0.021
0.020
0.019
0.018
0.017
0.016
0.015
0.014
0.013
0.012
0.011
0.010
0.009
0.008
0.007
0.007
0.006
0.006
0.005
0.004
0.004
0.003
0.003
0.003
0.002
0.002
0.002
0.002
0.001
0.001
0.001
0.001
0.001
0.001
0.001
0.000
0.000
0.000
0.000
0.000
0.000
0.000
0.000
0.000
0.000
0.000
0.000
0.000
0.000
0.000
0.000
0.000
0.000
0.000
0.000
0.000
0.000
0.000
0.000
0.000
0.000
0.000
0.000
0.000
0.000
-0.000
-0.000
-0.000
-0.000
-0.000
-0.000
-0.000
-0.000
-0.000
-0.000
0.000
0.000
0.000
0.000
0.000
0.000
0.000
0.000
0.000
0.000
0.000
-0.000
-0.000
-0.000
-0.000
-0.000
-0.000
-0.000
-0.000
-0.000
-0.000
0.000
0.000
0.000
0.000
0.000
0.000
0
0
0
0
0
0
0
0
0
0
0
0
0
0
0
0
0
0
0
0
0
0
0
0
0
0
0
0
0
0
0
0
0
0
0
0
0
0
0
0
0
0
0
0
0
0
0
0
0
0
0
0
0
0
0
0
0
0
0
0
0
0
0
0
0
0
0
0
0
0
0
0
0
0
0
0
0
0
0
0
0
0
0
0
0
0
0
0
0
0
0
0
0
0
0
0
0
0
0
0
0
0
0
0
0
0
0
0
0
0
0
0
0
0
0
0
0
0
0
0
0
0
0
0
0
0
0
0
0
0
0
0
0
0
0
0
0
0
0
0
0
0
0
0
0
0
0
0
0
0
0
0
0
0
0
0
0
0
0
0
0
0
0
0
0
0
0
0
0
0
0
0
0
0
0
0
0
0
0
0
0
0
0
0
0
0
0
0
0
0
0
0
0
0
0
0
0
0
0
0
0
0
0
0
0
0
0
0
0
0
0
0
0
0
0
0
0
0
0
0
0
0
0
0
0
0
0
0
0
0
0
0
0
0
0
0
0
0
0
0
0
0
0
0
0
0
0
0
0
0
0
0
0
0
0
0
0
0
0
0
0
0
0
0
0
0
0
0
0
0
0
0
0
0
0
0
0
0
0
0
0
0
0
0
0
0
0
0
0
0
0
0
0
0
0
0
0
0
0
0
0
0
0
0
0
0
0
0
0
0
0
0
0
0
0
0
0
0
0
0
0
0
0
0
0
0
0
0
0
0
0
0
0
0
0
0
0
0
0
0
0
0
0
0
0
0
0
0
0
0
0
0
0
0
0
0
0
0
0
0
0
0
0
0
0
0
0
0
0
0
0
0
0
0
0
0
0
0
0
0
0
0
0
0
0
0
0
0
0
0
0
0
0
0
0
0
0
0
0
0
0
0
0
0
0
0
0
0
0
0
0
0
0
0
0
0
0
0
0
0
0
0
0
0
0
0
0
0
0
0
0
0
0
0
0
0
0
0
0
0
0
0
0
0
0
0
0
0
0
0
0
0
0
0
0
0
0
0
0
0
0
0
0
0
0
0
0
0
0
0
0
0
0
0
0
0
0
0
$MCA_CAL:
3
-1.4656616 2.9313233 0.00000000000000
$ENER_FIT:
-1.4656616 2.9313233 0.00000000000000
$MCA_CAL_DATA:
3
298 872
597 1749
896 2625
$CAMBIO:
Parent file specification: C:\GADRAS-DRF\Temp\152EU_50.0_50.0_lead_0.92_8.5.pcf
Successful read of spectrum: Yes
Error message: None
Warning: None
Information: None
Neutrons: 0
Number of spectral records in the parent file: 1
Record number of this spectrum in the parent file: 1
Date and time of acquisition read successfully from the original file: Yes
Live time read successfully from the original file: Yes
True time read successfully from the original file: Yes
GADRAS Tag character is:  
Version: 130122
Parent file type: Sandia GADRAS PCF
