$SPEC_ID:
152EU,1uC{26,11.02}
$MEAS_TIM:
3600.00 3600.00
$DATE_MEA:
3/9/2018 5:22:25 PM
$DATA:
0 1193
722.518
681.936
639.361
1126.501
943.121
820.069
715.313
627.874
560.067
501.094
467.010
437.839
412.171
393.559
381.213
373.471
368.373
368.651
375.808
387.647
407.107
429.526
446.638
454.267
460.441
468.365
479.731
492.302
502.704
520.118
543.734
569.244
592.183
604.299
617.328
634.721
661.699
700.138
746.960
798.831
840.334
851.640
822.477
769.498
711.613
664.036
636.417
627.534
630.139
636.832
643.519
648.524
649.411
645.435
638.882
632.178
627.285
624.231
622.505
621.881
621.992
622.274
622.140
621.037
618.910
616.064
612.874
609.740
606.436
602.430
597.541
591.803
585.453
578.889
573.180
569.953
570.156
573.731
580.240
588.514
597.020
602.984
603.475
597.079
583.362
563.079
538.698
512.749
487.527
465.166
446.656
431.966
420.949
413.237
408.390
405.678
404.086
402.791
401.585
400.453
399.420
398.610
398.235
399.102
402.409
409.124
419.435
433.342
451.160
473.942
502.739
536.843
573.182
608.586
639.309
661.196
670.216
665.267
647.426
617.850
578.800
533.195
484.034
434.414
387.584
346.684
313.016
286.006
264.970
249.203
237.901
230.280
225.558
223.061
222.116
222.083
222.584
223.306
223.956
224.363
224.476
224.231
223.627
222.746
221.706
220.592
219.383
218.005
216.367
214.410
212.069
209.308
206.087
202.439
198.461
194.234
189.866
185.488
181.255
177.303
173.730
170.545
167.769
165.415
163.433
161.751
160.283
158.960
157.731
156.566
155.422
154.278
153.135
152.001
150.894
149.824
148.796
147.815
146.886
146.025
145.235
144.529
143.929
143.429
143.002
142.607
142.207
141.768
141.272
140.725
140.110
139.425
138.661
137.819
136.884
135.851
134.723
133.526
132.272
130.971
129.656
128.331
127.012
125.711
124.448
123.229
122.062
120.967
119.947
119.010
118.158
117.401
116.725
116.140
115.649
115.240
114.915
114.667
114.498
114.394
114.349
114.350
114.396
114.470
114.549
114.631
114.691
114.714
114.688
114.611
114.468
114.253
113.956
113.587
113.144
112.633
112.068
111.445
110.799
110.153
109.543
108.990
108.524
108.195
108.038
108.098
108.415
109.031
109.952
111.192
112.760
114.667
116.909
119.436
122.197
125.125
128.164
131.245
134.268
137.102
139.625
141.709
143.248
144.166
144.457
144.114
143.115
141.447
139.142
136.275
132.936
129.211
125.197
120.977
116.654
112.337
108.130
104.142
100.473
97.182
94.256
91.691
89.475
87.606
86.067
84.823
83.831
83.056
82.452
81.973
81.585
81.235
80.877
80.462
79.948
79.286
78.477
77.554
76.542
75.475
74.375
73.288
72.232
71.255
70.383
69.660
69.110
68.776
68.669
68.798
69.184
69.832
70.763
71.967
73.422
75.081
76.912
78.865
80.913
83.002
85.076
87.060
88.891
90.510
91.837
92.828
93.451
93.704
93.558
93.013
92.045
90.658
88.877
86.762
84.371
81.745
78.948
76.026
73.044
70.052
67.120
64.303
61.667
59.263
57.145
55.329
53.828
52.666
51.857
51.420
51.366
51.693
52.383
53.430
54.814
56.532
58.560
60.888
63.460
66.239
69.188
72.257
75.415
78.602
81.785
84.879
87.841
90.596
93.098
95.270
97.077
98.499
99.507
100.101
100.247
99.945
99.164
97.925
96.260
94.208
91.794
89.069
86.056
82.804
79.342
75.724
71.995
68.188
64.361
60.547
56.800
53.139
49.597
46.197
42.965
39.922
37.098
34.510
32.156
30.023
28.095
26.359
24.796
23.396
22.141
21.021
20.020
19.134
18.343
17.641
17.013
16.449
15.941
15.479
15.063
14.681
14.330
14.002
13.692
13.395
13.112
12.842
12.587
12.346
12.118
11.907
11.709
11.526
11.359
11.207
11.069
10.948
10.840
10.749
10.672
10.611
10.566
10.534
10.519
10.517
10.531
10.561
10.611
10.689
10.801
10.950
11.145
11.390
11.691
12.056
12.491
13.004
13.600
14.289
15.076
15.969
16.973
18.088
19.307
20.627
22.039
23.537
25.121
26.779
28.506
30.282
32.087
33.893
35.684
37.433
39.122
40.721
42.222
43.593
44.818
45.883
46.762
47.443
47.898
48.122
48.089
47.820
47.319
46.606
45.688
44.583
43.303
41.856
40.263
38.541
36.718
34.810
32.845
30.845
28.833
26.828
24.856
22.926
21.051
19.237
17.498
15.842
14.277
12.817
11.468
10.232
9.102
8.074
7.143
6.305
5.552
4.881
4.286
3.761
3.302
2.902
2.556
2.256
1.999
1.777
1.585
1.417
1.272
1.145
1.036
0.942
0.861
0.791
0.728
0.672
0.621
0.574
0.532
0.492
0.456
0.423
0.392
0.363
0.336
0.310
0.286
0.263
0.242
0.222
0.203
0.186
0.171
0.156
0.144
0.132
0.121
0.112
0.103
0.096
0.089
0.083
0.078
0.073
0.069
0.065
0.062
0.059
0.056
0.054
0.052
0.050
0.048
0.047
0.046
0.044
0.043
0.042
0.041
0.040
0.039
0.038
0.037
0.036
0.036
0.035
0.034
0.033
0.032
0.032
0.031
0.030
0.030
0.029
0.028
0.028
0.027
0.027
0.026
0.026
0.025
0.025
0.024
0.024
0.023
0.022
0.022
0.021
0.021
0.020
0.020
0.019
0.019
0.018
0.017
0.017
0.016
0.015
0.015
0.014
0.013
0.013
0.012
0.011
0.011
0.010
0.009
0.009
0.008
0.007
0.007
0.006
0.006
0.005
0.005
0.004
0.004
0.004
0.003
0.003
0.003
0.002
0.002
0.002
0.002
0.001
0.001
0.001
0.001
0.001
0.001
0.001
0.000
0.000
0.000
0.000
0.000
0.000
0.000
0.000
0.000
0.000
0.000
0.000
0.000
0.000
0.000
0.000
0.000
0.000
0.000
0.000
0.000
0.000
0.000
0.000
0.000
0.000
0.000
0.000
0.000
0.000
0.000
0.000
0.000
-0.000
-0.000
-0.000
-0.000
-0.000
-0.000
-0.000
-0.000
-0.000
-0.000
0.000
0.000
0.000
0.000
0.000
0.000
0.000
0.000
0.000
0.000
0.000
-0.000
-0.000
-0.000
-0.000
-0.000
-0.000
-0.000
-0.000
-0.000
-0.000
0.000
0.000
0.000
0.000
0.000
0.000
0
0
0
0
0
0
0
0
0
0
0
0
0
0
0
0
0
0
0
0
0
0
0
0
0
0
0
0
0
0
0
0
0
0
0
0
0
0
0
0
0
0
0
0
0
0
0
0
0
0
0
0
0
0
0
0
0
0
0
0
0
0
0
0
0
0
0
0
0
0
0
0
0
0
0
0
0
0
0
0
0
0
0
0
0
0
0
0
0
0
0
0
0
0
0
0
0
0
0
0
0
0
0
0
0
0
0
0
0
0
0
0
0
0
0
0
0
0
0
0
0
0
0
0
0
0
0
0
0
0
0
0
0
0
0
0
0
0
0
0
0
0
0
0
0
0
0
0
0
0
0
0
0
0
0
0
0
0
0
0
0
0
0
0
0
0
0
0
0
0
0
0
0
0
0
0
0
0
0
0
0
0
0
0
0
0
0
0
0
0
0
0
0
0
0
0
0
0
0
0
0
0
0
0
0
0
0
0
0
0
0
0
0
0
0
0
0
0
0
0
0
0
0
0
0
0
0
0
0
0
0
0
0
0
0
0
0
0
0
0
0
0
0
0
0
0
0
0
0
0
0
0
0
0
0
0
0
0
0
0
0
0
0
0
0
0
0
0
0
0
0
0
0
0
0
0
0
0
0
0
0
0
0
0
0
0
0
0
0
0
0
0
0
0
0
0
0
0
0
0
0
0
0
0
0
0
0
0
0
0
0
0
0
0
0
0
0
0
0
0
0
0
0
0
0
0
0
0
0
0
0
0
0
0
0
0
0
0
0
0
0
0
0
0
0
0
0
0
0
0
0
0
0
0
0
0
0
0
0
0
0
0
0
0
0
0
0
0
0
0
0
0
0
0
0
0
0
0
0
0
0
0
0
0
0
0
0
0
0
0
0
0
0
0
0
0
0
0
0
0
0
0
0
0
0
0
0
0
0
0
0
0
0
0
0
0
0
0
0
0
0
0
0
0
0
0
0
0
0
0
0
0
0
0
0
0
0
0
0
0
0
0
0
0
0
0
0
0
0
0
0
0
0
0
0
0
0
0
0
0
0
0
0
0
0
0
0
0
0
0
0
0
0
0
0
0
0
0
$MCA_CAL:
3
-1.4656616 2.9313233 0.00000000000000
$ENER_FIT:
-1.4656616 2.9313233 0.00000000000000
$MCA_CAL_DATA:
3
298 872
597 1749
896 2625
$CAMBIO:
Parent file specification: C:\GADRAS-DRF\Temp\152EU_75.0_50.0_iron_11.02_8.5.pcf
Successful read of spectrum: Yes
Error message: None
Warning: None
Information: None
Neutrons: 0
Number of spectral records in the parent file: 1
Record number of this spectrum in the parent file: 1
Date and time of acquisition read successfully from the original file: Yes
Live time read successfully from the original file: Yes
True time read successfully from the original file: Yes
GADRAS Tag character is:  
Version: 130122
Parent file type: Sandia GADRAS PCF
