$SPEC_ID:
152EU,1uC{0,0}
$MEAS_TIM:
3600.00 3600.00
$DATE_MEA:
3/9/2018 5:22:25 PM
$DATA:
0 1193
1779.128
2064.524
3080.421
5314.281
4187.467
2111.075
1519.743
958.540
842.361
825.313
1582.373
6274.666
18631.549
27400.047
19136.699
9125.618
3976.511
1379.763
575.384
469.855
475.280
494.008
507.666
525.643
556.820
609.342
660.396
690.273
706.956
750.272
830.397
918.182
983.898
1027.633
1072.142
1160.137
1363.092
1788.546
2517.514
3464.728
4300.566
4581.698
4108.348
3109.209
2027.230
1222.639
776.090
591.776
543.735
544.156
550.227
548.691
539.937
526.263
513.202
505.413
503.458
506.303
512.574
521.444
530.898
538.468
543.644
546.377
546.593
544.713
541.529
537.974
534.419
529.817
523.734
516.872
510.138
504.739
504.091
512.914
536.218
578.437
640.300
719.386
804.050
879.535
930.213
942.281
913.584
847.427
757.314
660.459
569.769
495.341
440.863
404.849
384.285
374.421
371.086
371.738
374.234
377.422
380.431
382.662
383.663
383.502
383.099
383.737
388.260
399.984
423.197
463.091
524.356
610.090
722.682
859.104
1011.782
1170.906
1318.755
1436.205
1509.010
1528.407
1488.068
1395.285
1262.845
1104.599
937.300
777.743
636.599
518.124
425.749
357.813
309.977
278.060
258.527
248.066
243.803
244.197
247.915
253.728
260.643
267.675
274.037
279.230
282.798
284.652
285.279
285.186
284.827
284.520
284.579
285.014
285.268
284.755
282.931
279.471
274.059
266.527
257.304
246.928
235.966
225.018
214.722
205.678
198.150
192.090
187.463
184.135
181.793
180.125
178.827
177.727
176.673
175.533
174.248
172.847
171.355
169.801
168.257
166.786
165.450
164.286
163.305
162.530
161.966
161.633
161.560
161.755
162.178
162.729
163.300
163.796
164.178
164.447
164.584
164.566
164.321
163.783
162.870
161.570
159.946
158.080
156.034
153.853
151.600
149.305
147.012
144.760
142.599
140.560
138.683
136.992
135.489
134.185
133.085
132.197
131.498
130.992
130.678
130.546
130.597
130.828
131.244
131.828
132.570
133.455
134.477
135.604
136.794
138.030
139.267
140.457
141.534
142.443
143.109
143.498
143.619
143.500
143.149
142.581
141.814
140.830
139.643
138.255
136.757
135.284
133.977
132.986
132.427
132.394
132.968
134.243
136.296
139.206
143.049
147.900
153.832
160.839
168.782
177.487
186.792
196.516
206.358
215.913
224.790
232.589
238.977
243.706
246.597
247.469
246.120
242.554
237.050
229.875
221.313
211.647
201.217
190.368
179.465
168.864
158.902
149.756
141.544
134.395
128.418
123.694
120.118
117.555
115.852
114.866
114.455
114.498
114.863
115.417
116.050
116.628
117.039
117.169
116.911
116.147
114.807
112.973
110.737
108.207
105.472
102.656
99.837
97.134
94.640
92.466
90.698
89.434
88.744
88.700
89.390
90.876
93.174
96.225
99.998
104.437
109.507
115.101
121.074
127.249
133.474
139.566
145.366
150.701
155.367
159.202
162.007
163.624
163.978
163.138
161.132
158.025
153.842
148.676
142.706
136.100
129.064
121.771
114.419
107.145
100.096
93.392
87.174
81.561
76.675
72.546
69.192
66.641
64.905
64.010
63.956
64.735
66.324
68.717
71.888
75.833
80.494
85.839
91.791
98.298
105.314
112.757
120.523
128.444
136.414
144.254
151.850
159.037
165.707
171.700
176.903
181.185
184.390
186.453
187.346
187.119
185.758
183.306
179.773
175.213
169.721
163.451
156.500
149.024
141.121
132.933
124.575
116.145
107.777
99.565
91.642
84.090
76.964
70.291
64.104
58.426
53.298
48.734
44.710
41.182
38.101
35.423
33.097
31.083
29.338
27.837
26.544
25.436
24.475
23.637
22.892
22.224
21.619
21.058
20.530
20.012
19.497
18.979
18.467
17.960
17.466
16.986
16.526
16.088
15.675
15.295
14.948
14.641
14.377
14.159
13.983
13.844
13.738
13.660
13.603
13.566
13.542
13.527
13.521
13.516
13.513
13.505
13.492
13.482
13.488
13.522
13.600
13.733
13.936
14.225
14.623
15.156
15.847
16.726
17.814
19.140
20.721
22.565
24.679
27.068
29.736
32.689
35.937
39.457
43.210
47.149
51.228
55.396
59.614
63.826
67.985
72.006
75.839
79.396
82.606
85.411
87.725
89.520
90.769
91.488
91.644
91.247
90.274
88.731
86.625
84.024
80.993
77.581
73.866
69.895
65.745
61.461
57.107
52.731
48.387
44.121
39.995
36.052
32.344
28.873
25.647
22.664
19.923
17.430
15.182
13.182
11.417
9.870
8.522
7.355
6.351
5.492
4.759
4.137
3.615
3.179
2.818
2.521
2.275
2.068
1.891
1.737
1.604
1.488
1.387
1.298
1.217
1.141
1.068
0.998
0.932
0.868
0.807
0.749
0.693
0.640
0.589
0.540
0.494
0.451
0.411
0.373
0.338
0.307
0.278
0.252
0.228
0.207
0.188
0.172
0.157
0.145
0.134
0.124
0.116
0.110
0.104
0.099
0.095
0.091
0.088
0.085
0.082
0.080
0.078
0.076
0.075
0.073
0.071
0.070
0.068
0.067
0.066
0.064
0.063
0.061
0.060
0.058
0.057
0.055
0.054
0.053
0.051
0.050
0.049
0.048
0.047
0.046
0.045
0.044
0.043
0.042
0.041
0.041
0.040
0.039
0.039
0.038
0.038
0.037
0.036
0.036
0.035
0.034
0.033
0.032
0.031
0.030
0.029
0.028
0.027
0.026
0.025
0.023
0.022
0.021
0.019
0.018
0.017
0.016
0.014
0.013
0.012
0.011
0.010
0.009
0.008
0.007
0.006
0.006
0.005
0.004
0.004
0.003
0.003
0.002
0.002
0.002
0.001
0.001
0.001
0.001
0.001
0.001
0.000
0.000
0.000
0.000
0.000
0.000
0.000
0.000
0.000
0.000
0.000
0.000
0.000
0.000
0.000
0.000
0.000
0.000
0.000
0.000
0.000
0.000
0.000
-0.000
-0.000
-0.000
-0.000
-0.000
-0.000
-0.000
-0.000
-0.000
0.000
0.000
0.000
0.000
0.000
0.000
0.000
0.000
0.000
0.000
0.000
0.000
0.000
0.000
0
0
0
0
0
0
0
0
0
0
0
0
0
0
0
0
0
0
0
0
0
0
0
0
0
0
0
0
0
0
0
0
0
0
0
0
0
0
0
0
0
0
0
0
0
0
0
0
0
0
0
0
0
0
0
0
0
0
0
0
0
0
0
0
0
0
0
0
0
0
0
0
0
0
0
0
0
0
0
0
0
0
0
0
0
0
0
0
0
0
0
0
0
0
0
0
0
0
0
0
0
0
0
0
0
0
0
0
0
0
0
0
0
0
0
0
0
0
0
0
0
0
0
0
0
0
0
0
0
0
0
0
0
0
0
0
0
0
0
0
0
0
0
0
0
0
0
0
0
0
0
0
0
0
0
0
0
0
0
0
0
0
0
0
0
0
0
0
0
0
0
0
0
0
0
0
0
0
0
0
0
0
0
0
0
0
0
0
0
0
0
0
0
0
0
0
0
0
0
0
0
0
0
0
0
0
0
0
0
0
0
0
0
0
0
0
0
0
0
0
0
0
0
0
0
0
0
0
0
0
0
0
0
0
0
0
0
0
0
0
0
0
0
0
0
0
0
0
0
0
0
0
0
0
0
0
0
0
0
0
0
0
0
0
0
0
0
0
0
0
0
0
0
0
0
0
0
0
0
0
0
0
0
0
0
0
0
0
0
0
0
0
0
0
0
0
0
0
0
0
0
0
0
0
0
0
0
0
0
0
0
0
0
0
0
0
0
0
0
0
0
0
0
0
0
0
0
0
0
0
0
0
0
0
0
0
0
0
0
0
0
0
0
0
0
0
0
0
0
0
0
0
0
0
0
0
0
0
0
0
0
0
0
0
0
0
0
0
0
0
0
0
0
0
0
0
0
0
0
0
0
0
0
0
0
0
0
0
0
0
0
0
0
0
0
0
0
0
0
0
0
0
0
0
0
0
0
0
0
0
0
0
0
0
0
0
0
0
0
0
0
0
0
0
0
0
0
0
0
0
0
0
0
0
0
0
0
0
0
0
0
0
0
0
0
0
0
0
0
0
0
0
0
0
0
0
0
0
0
0
0
0
0
0
0
0
0
0
0
0
0
0
0
0
0
0
0
0
0
0
0
0
0
0
0
0
0
0
0
0
0
0
0
0
0
0
0
0
0
0
0
0
0
0
$MCA_CAL:
3
-1.4656616 2.9313233 0.00000000000000
$ENER_FIT:
-1.4656616 2.9313233 0.00000000000000
$MCA_CAL_DATA:
3
298 872
597 1749
896 2625
$CAMBIO:
Parent file specification: C:\GADRAS-DRF\Temp\152EU_100.0_50.0_none_0_7.5.pcf
Successful read of spectrum: Yes
Error message: None
Warning: None
Information: None
Neutrons: 0
Number of spectral records in the parent file: 1
Record number of this spectrum in the parent file: 1
Date and time of acquisition read successfully from the original file: Yes
Live time read successfully from the original file: Yes
True time read successfully from the original file: Yes
GADRAS Tag character is:  
Version: 130122
Parent file type: Sandia GADRAS PCF
