$SPEC_ID:
152EU,1uC{26,1.53}
$MEAS_TIM:
3600.00 3600.00
$DATE_MEA:
3/9/2018 5:22:25 PM
$DATA:
0 1193
1433.972
1393.153
1281.551
1298.669
1128.985
986.008
853.430
741.161
660.536
590.781
553.271
539.008
583.168
648.386
638.525
608.677
513.004
439.572
426.458
433.770
454.255
483.457
508.813
526.273
552.247
597.472
648.729
681.318
704.313
757.795
843.979
931.859
990.353
1017.097
1040.986
1081.981
1176.593
1412.849
1909.839
2712.438
3534.414
3841.740
3342.589
2359.318
1428.091
855.405
619.191
557.749
560.001
576.233
585.595
584.942
576.855
565.034
555.573
551.342
551.888
555.788
562.619
571.697
581.196
588.857
593.562
595.199
593.958
589.901
585.070
581.116
577.078
572.175
566.206
559.628
551.894
542.414
534.076
531.718
541.807
571.216
625.441
703.844
798.008
888.656
953.244
969.613
933.147
850.911
744.701
637.573
546.945
482.065
440.770
418.153
407.461
403.843
404.266
406.848
410.494
414.424
417.984
420.381
420.733
418.853
415.093
410.568
407.084
407.209
414.320
433.405
471.460
535.169
630.253
759.763
918.529
1097.546
1274.127
1421.213
1515.921
1538.693
1483.689
1363.639
1195.643
1005.441
819.413
653.703
519.181
419.602
349.440
302.551
272.850
254.424
243.563
238.429
237.503
240.130
245.765
253.559
262.454
271.323
278.894
283.906
285.993
285.590
283.292
280.186
277.536
276.220
276.503
278.528
281.471
283.875
284.363
282.231
276.946
268.382
257.341
244.730
231.558
218.916
207.875
198.890
192.002
187.181
184.106
182.309
181.326
180.796
180.372
179.774
178.915
177.778
176.351
174.708
172.931
171.100
169.313
167.660
166.208
164.944
163.837
162.882
162.143
161.717
161.687
161.966
162.419
162.920
163.429
163.957
164.507
165.031
165.402
165.500
165.239
164.602
163.557
162.108
160.316
158.271
156.042
153.685
151.275
148.856
146.477
144.170
141.976
139.920
138.039
136.379
134.967
133.794
132.813
131.990
131.284
130.717
130.318
130.098
130.061
130.189
130.475
130.903
131.483
132.225
133.145
134.227
135.432
136.747
138.123
139.486
140.746
141.824
142.642
143.165
143.360
143.202
142.688
141.849
140.732
139.353
137.764
136.003
134.120
132.166
130.261
128.550
127.157
126.203
125.755
125.888
126.660
128.190
130.672
134.311
139.306
145.743
153.578
162.736
173.149
184.561
196.515
208.520
220.101
230.713
239.775
246.649
250.752
251.809
249.922
245.237
237.917
228.253
216.816
204.194
190.987
177.719
164.807
152.647
141.636
132.094
124.065
117.534
112.471
108.843
106.508
105.287
104.987
105.425
106.432
107.863
109.565
111.379
113.163
114.736
115.928
116.565
116.504
115.727
114.272
112.182
109.490
106.293
102.724
98.952
95.104
91.340
87.786
84.585
81.858
79.749
78.344
77.697
77.874
78.924
80.900
83.789
87.592
92.289
97.876
104.257
111.284
118.780
126.591
134.522
142.297
149.599
156.081
161.440
165.395
167.857
168.717
167.918
165.363
161.139
155.468
148.613
140.834
132.364
123.481
114.431
105.487
96.893
88.902
81.603
75.052
69.284
64.358
60.302
57.094
54.710
53.114
52.277
52.173
52.813
54.198
56.348
59.263
62.959
67.420
72.660
78.657
85.408
92.890
100.977
109.561
118.496
127.691
136.966
146.134
154.944
163.194
170.631
177.067
182.383
186.455
189.211
190.522
190.336
188.660
185.605
181.249
175.686
168.987
161.331
152.886
143.871
134.458
124.856
115.235
105.712
96.437
87.523
79.118
71.315
64.157
57.662
51.853
46.744
42.357
38.639
35.508
32.887
30.693
28.847
27.284
25.977
24.894
24.009
23.290
22.714
22.242
21.848
21.497
21.156
20.796
20.396
19.962
19.491
18.988
18.453
17.892
17.312
16.728
16.151
15.594
15.068
14.583
14.149
13.768
13.448
13.195
13.013
12.900
12.848
12.848
12.891
12.969
13.071
13.187
13.301
13.400
13.468
13.494
13.467
13.390
13.270
13.112
12.921
12.705
12.475
12.259
12.086
11.983
11.980
12.103
12.386
12.866
13.584
14.574
15.877
17.531
19.558
21.967
24.766
27.968
31.578
35.604
40.014
44.743
49.716
54.875
60.141
65.456
70.711
75.811
80.620
85.022
88.911
92.156
94.697
96.487
97.528
97.767
97.198
95.782
93.552
90.585
86.987
82.855
78.276
73.358
68.185
62.861
57.466
52.098
46.848
41.808
37.055
32.622
28.515
24.747
21.324
18.259
15.559
13.210
11.184
9.448
7.975
6.732
5.691
4.824
4.111
3.532
3.068
2.699
2.405
2.169
1.980
1.829
1.710
1.615
1.536
1.466
1.401
1.338
1.277
1.218
1.159
1.100
1.039
0.977
0.915
0.852
0.790
0.728
0.667
0.608
0.552
0.497
0.446
0.398
0.354
0.315
0.280
0.248
0.221
0.197
0.177
0.159
0.144
0.131
0.121
0.112
0.105
0.099
0.094
0.090
0.087
0.084
0.082
0.080
0.078
0.077
0.075
0.074
0.073
0.072
0.071
0.070
0.068
0.067
0.066
0.065
0.063
0.062
0.061
0.059
0.058
0.056
0.055
0.053
0.051
0.050
0.048
0.047
0.046
0.044
0.043
0.042
0.041
0.040
0.039
0.038
0.038
0.037
0.037
0.037
0.037
0.036
0.036
0.036
0.036
0.035
0.035
0.035
0.034
0.033
0.032
0.032
0.031
0.029
0.028
0.027
0.025
0.024
0.022
0.021
0.019
0.018
0.016
0.015
0.013
0.012
0.011
0.010
0.008
0.007
0.006
0.006
0.005
0.004
0.003
0.003
0.002
0.002
0.002
0.001
0.001
0.001
0.001
0.001
0.000
0.000
0.000
0.000
0.000
0.000
0.000
0.000
0.000
0.000
0.000
0.000
0.000
0.000
0.000
0.000
0.000
0.000
0.000
0.000
0.000
0.000
0.000
-0.000
-0.000
-0.000
-0.000
-0.000
-0.000
-0.000
0.000
0.000
0.000
0.000
0.000
0.000
0.000
0.000
-0.000
-0.000
-0.000
-0.000
-0.000
-0.000
-0.000
-0.000
0.000
0.000
0.000
0.000
0
0
0
0
0
0
0
0
0
0
0
0
0
0
0
0
0
0
0
0
0
0
0
0
0
0
0
0
0
0
0
0
0
0
0
0
0
0
0
0
0
0
0
0
0
0
0
0
0
0
0
0
0
0
0
0
0
0
0
0
0
0
0
0
0
0
0
0
0
0
0
0
0
0
0
0
0
0
0
0
0
0
0
0
0
0
0
0
0
0
0
0
0
0
0
0
0
0
0
0
0
0
0
0
0
0
0
0
0
0
0
0
0
0
0
0
0
0
0
0
0
0
0
0
0
0
0
0
0
0
0
0
0
0
0
0
0
0
0
0
0
0
0
0
0
0
0
0
0
0
0
0
0
0
0
0
0
0
0
0
0
0
0
0
0
0
0
0
0
0
0
0
0
0
0
0
0
0
0
0
0
0
0
0
0
0
0
0
0
0
0
0
0
0
0
0
0
0
0
0
0
0
0
0
0
0
0
0
0
0
0
0
0
0
0
0
0
0
0
0
0
0
0
0
0
0
0
0
0
0
0
0
0
0
0
0
0
0
0
0
0
0
0
0
0
0
0
0
0
0
0
0
0
0
0
0
0
0
0
0
0
0
0
0
0
0
0
0
0
0
0
0
0
0
0
0
0
0
0
0
0
0
0
0
0
0
0
0
0
0
0
0
0
0
0
0
0
0
0
0
0
0
0
0
0
0
0
0
0
0
0
0
0
0
0
0
0
0
0
0
0
0
0
0
0
0
0
0
0
0
0
0
0
0
0
0
0
0
0
0
0
0
0
0
0
0
0
0
0
0
0
0
0
0
0
0
0
0
0
0
0
0
0
0
0
0
0
0
0
0
0
0
0
0
0
0
0
0
0
0
0
0
0
0
0
0
0
0
0
0
0
0
0
0
0
0
0
0
0
0
0
0
0
0
0
0
0
0
0
0
0
0
0
0
0
0
0
0
0
0
0
0
0
0
0
0
0
0
0
0
0
0
0
0
0
0
0
0
0
0
0
0
0
0
0
0
0
0
0
0
0
0
0
0
0
0
0
0
0
0
0
0
0
0
0
0
0
0
0
0
0
0
0
0
0
0
0
0
0
0
0
0
0
0
0
0
0
0
0
0
0
0
0
0
0
0
0
0
0
0
0
0
0
0
0
$MCA_CAL:
3
-1.4656616 2.9313233 0.00000000000000
$ENER_FIT:
-1.4656616 2.9313233 0.00000000000000
$MCA_CAL_DATA:
3
298 872
597 1749
896 2625
$CAMBIO:
Parent file specification: C:\GADRAS-DRF\Temp\152EU_125.0_50.0_iron_1.53_6.5.pcf
Successful read of spectrum: Yes
Error message: None
Warning: None
Information: None
Neutrons: 0
Number of spectral records in the parent file: 1
Record number of this spectrum in the parent file: 1
Date and time of acquisition read successfully from the original file: Yes
Live time read successfully from the original file: Yes
True time read successfully from the original file: Yes
GADRAS Tag character is:  
Version: 130122
Parent file type: Sandia GADRAS PCF
