$SPEC_ID:
152EU,1uC{26,3.50}
$MEAS_TIM:
3600.00 3600.00
$DATE_MEA:
3/9/2018 5:22:25 PM
$DATA:
0 1193
1244.217
1200.059
1113.768
1308.758
1117.469
971.808
846.594
743.724
661.513
590.605
550.204
515.796
483.967
461.025
446.177
436.714
430.015
428.663
435.564
448.526
472.285
500.436
527.670
549.496
574.466
606.108
642.620
677.699
710.555
753.906
808.963
868.913
921.700
957.070
998.489
1066.288
1192.287
1395.357
1667.299
1973.173
2211.887
2267.171
2080.336
1735.679
1350.093
1025.014
813.164
706.864
667.635
659.356
660.613
662.325
660.160
653.465
645.500
639.083
636.059
636.045
638.070
641.581
645.728
649.232
651.409
652.217
651.509
649.084
645.560
641.998
638.226
633.448
627.701
621.534
615.823
611.703
611.300
617.571
632.353
655.850
687.117
722.841
758.853
788.522
804.884
804.227
784.934
748.438
700.589
647.489
594.910
548.343
510.511
481.727
461.786
449.175
442.123
438.949
438.000
437.892
438.104
438.381
438.729
439.560
441.427
445.827
454.836
470.419
494.207
527.762
572.326
628.617
697.159
775.753
858.565
939.588
1011.555
1066.228
1095.591
1096.790
1070.822
1018.936
945.766
858.169
763.110
666.974
575.799
495.426
428.555
374.674
333.088
302.666
281.548
267.844
259.785
256.058
255.393
256.594
258.912
261.737
264.481
266.809
268.615
269.779
270.280
270.246
269.852
269.234
268.369
267.156
265.475
263.226
260.273
256.512
251.838
246.309
240.102
233.370
226.317
219.200
212.315
205.933
200.235
195.239
190.975
187.461
184.611
182.297
180.373
178.717
177.238
175.876
174.554
173.229
171.905
170.598
169.341
168.152
167.033
165.993
165.035
164.179
163.438
162.840
162.420
162.178
162.065
162.012
161.954
161.831
161.620
161.323
160.920
160.407
159.761
158.969
157.997
156.828
155.465
153.952
152.321
150.601
148.843
147.060
145.279
143.519
141.814
140.176
138.627
137.198
135.902
134.755
133.752
132.903
132.188
131.614
131.185
130.891
130.733
130.708
130.819
131.044
131.371
131.781
132.267
132.802
133.353
133.907
134.428
134.891
135.274
135.566
135.743
135.788
135.685
135.448
135.080
134.592
134.006
133.323
132.596
131.866
131.187
130.597
130.150
129.927
130.000
130.446
131.342
132.757
134.702
137.192
140.237
143.849
148.021
152.666
157.697
163.007
168.500
174.063
179.534
184.701
189.368
193.333
196.420
198.502
199.557
199.560
198.462
196.233
192.917
188.644
183.569
177.841
171.622
165.054
158.310
151.560
144.975
138.727
132.982
127.832
123.265
119.277
115.856
113.001
110.689
108.864
107.455
106.397
105.617
105.039
104.604
104.231
103.848
103.379
102.759
101.912
100.835
99.579
98.182
96.690
95.139
93.595
92.089
90.696
89.465
88.462
87.732
87.340
87.307
87.648
88.396
89.563
91.180
93.234
95.688
98.471
101.530
104.790
108.203
111.687
115.154
118.485
121.582
124.347
126.658
128.443
129.654
130.279
130.278
129.644
128.342
126.374
123.781
120.655
117.088
113.146
108.929
104.509
99.986
95.440
90.978
86.683
82.657
78.982
75.739
72.957
70.662
68.893
67.674
67.039
67.008
67.577
68.714
70.410
72.630
75.367
78.581
82.256
86.309
90.682
95.321
100.149
105.120
110.145
115.169
120.065
124.763
129.148
133.148
136.645
139.584
141.934
143.652
144.736
145.137
144.853
143.838
142.122
139.753
136.792
133.275
129.279
124.838
120.027
114.890
109.509
103.952
98.275
92.561
86.864
81.264
75.793
70.499
65.416
60.583
56.029
51.802
47.927
44.400
41.203
38.315
35.715
33.379
31.290
29.424
27.766
26.291
24.990
23.835
22.813
21.904
21.089
20.357
19.694
19.098
18.553
18.054
17.589
17.151
16.732
16.333
15.955
15.599
15.263
14.948
14.655
14.384
14.135
13.909
13.705
13.522
13.362
13.224
13.108
13.013
12.941
12.891
12.862
12.857
12.872
12.910
12.971
13.064
13.195
13.375
13.610
13.911
14.284
14.738
15.283
15.930
16.690
17.572
18.589
19.749
21.067
22.547
24.191
25.989
27.936
30.020
32.234
34.574
37.027
39.584
42.216
44.891
47.571
50.230
52.827
55.337
57.716
59.949
61.993
63.824
65.423
66.753
67.797
68.514
68.899
68.914
68.588
67.926
66.957
65.687
64.142
62.339
60.288
58.019
55.556
52.941
50.199
47.372
44.491
41.591
38.702
35.862
33.081
30.381
27.768
25.263
22.877
20.623
18.517
16.569
14.783
13.149
11.662
10.313
9.098
8.006
7.033
6.171
5.411
4.747
4.169
3.668
3.236
2.865
2.546
2.270
2.029
1.819
1.638
1.481
1.346
1.229
1.127
1.038
0.958
0.885
0.817
0.756
0.700
0.648
0.601
0.556
0.515
0.476
0.439
0.405
0.372
0.342
0.314
0.288
0.263
0.241
0.221
0.203
0.186
0.171
0.157
0.145
0.134
0.125
0.116
0.109
0.102
0.096
0.091
0.086
0.082
0.078
0.075
0.072
0.070
0.067
0.065
0.063
0.062
0.060
0.058
0.057
0.056
0.054
0.053
0.052
0.050
0.049
0.048
0.047
0.046
0.045
0.044
0.043
0.042
0.041
0.040
0.039
0.039
0.038
0.037
0.036
0.035
0.035
0.034
0.033
0.033
0.032
0.031
0.030
0.030
0.029
0.028
0.027
0.027
0.026
0.025
0.024
0.023
0.022
0.021
0.021
0.020
0.019
0.018
0.017
0.016
0.015
0.014
0.013
0.012
0.011
0.010
0.010
0.009
0.008
0.007
0.007
0.006
0.005
0.005
0.004
0.004
0.004
0.003
0.003
0.002
0.002
0.002
0.002
0.001
0.001
0.001
0.001
0.001
0.001
0.001
0.000
0.000
0.000
0.000
0.000
0.000
0.000
0.000
0.000
0.000
0.000
0.000
0.000
0.000
0.000
0.000
0.000
0.000
0.000
0.000
0.000
0.000
0.000
0.000
0.000
0.000
0.000
0.000
0.000
0.000
0.000
-0.000
-0.000
-0.000
-0.000
-0.000
-0.000
-0.000
-0.000
-0.000
-0.000
0.000
0.000
0.000
0.000
0.000
0.000
0.000
0.000
0.000
0.000
0.000
-0.000
-0.000
-0.000
-0.000
-0.000
-0.000
-0.000
-0.000
-0.000
-0.000
0.000
0.000
0.000
0.000
0.000
0.000
0
0
0
0
0
0
0
0
0
0
0
0
0
0
0
0
0
0
0
0
0
0
0
0
0
0
0
0
0
0
0
0
0
0
0
0
0
0
0
0
0
0
0
0
0
0
0
0
0
0
0
0
0
0
0
0
0
0
0
0
0
0
0
0
0
0
0
0
0
0
0
0
0
0
0
0
0
0
0
0
0
0
0
0
0
0
0
0
0
0
0
0
0
0
0
0
0
0
0
0
0
0
0
0
0
0
0
0
0
0
0
0
0
0
0
0
0
0
0
0
0
0
0
0
0
0
0
0
0
0
0
0
0
0
0
0
0
0
0
0
0
0
0
0
0
0
0
0
0
0
0
0
0
0
0
0
0
0
0
0
0
0
0
0
0
0
0
0
0
0
0
0
0
0
0
0
0
0
0
0
0
0
0
0
0
0
0
0
0
0
0
0
0
0
0
0
0
0
0
0
0
0
0
0
0
0
0
0
0
0
0
0
0
0
0
0
0
0
0
0
0
0
0
0
0
0
0
0
0
0
0
0
0
0
0
0
0
0
0
0
0
0
0
0
0
0
0
0
0
0
0
0
0
0
0
0
0
0
0
0
0
0
0
0
0
0
0
0
0
0
0
0
0
0
0
0
0
0
0
0
0
0
0
0
0
0
0
0
0
0
0
0
0
0
0
0
0
0
0
0
0
0
0
0
0
0
0
0
0
0
0
0
0
0
0
0
0
0
0
0
0
0
0
0
0
0
0
0
0
0
0
0
0
0
0
0
0
0
0
0
0
0
0
0
0
0
0
0
0
0
0
0
0
0
0
0
0
0
0
0
0
0
0
0
0
0
0
0
0
0
0
0
0
0
0
0
0
0
0
0
0
0
0
0
0
0
0
0
0
0
0
0
0
0
0
0
0
0
0
0
0
0
0
0
0
0
0
0
0
0
0
0
0
0
0
0
0
0
0
0
0
0
0
0
0
0
0
0
0
0
0
0
0
0
0
0
0
0
0
0
0
0
0
0
0
0
0
0
0
0
0
0
0
0
0
0
0
0
0
0
0
0
0
0
0
0
0
0
0
0
0
0
0
0
0
0
0
0
$MCA_CAL:
3
-1.4656616 2.9313233 0.00000000000000
$ENER_FIT:
-1.4656616 2.9313233 0.00000000000000
$MCA_CAL_DATA:
3
298 872
597 1749
896 2625
$CAMBIO:
Parent file specification: C:\GADRAS-DRF\Temp\152EU_100.0_50.0_iron_3.50_8.5.pcf
Successful read of spectrum: Yes
Error message: None
Warning: None
Information: None
Neutrons: 0
Number of spectral records in the parent file: 1
Record number of this spectrum in the parent file: 1
Date and time of acquisition read successfully from the original file: Yes
Live time read successfully from the original file: Yes
True time read successfully from the original file: Yes
GADRAS Tag character is:  
Version: 130122
Parent file type: Sandia GADRAS PCF
