$SPEC_ID:
152EU,1uC{82,0.51}
$MEAS_TIM:
3600.00 3600.00
$DATE_MEA:
3/9/2018 5:22:25 PM
$DATA:
0 1193
1865.530
1778.525
1637.066
1506.872
1322.023
1160.986
1016.177
898.124
804.863
722.771
676.709
641.229
618.252
612.676
606.854
594.987
564.240
542.544
545.419
560.120
582.087
610.117
633.186
635.849
635.120
640.892
652.495
656.273
649.499
643.226
646.779
657.181
668.336
677.061
687.167
703.649
737.398
810.439
948.044
1145.267
1332.791
1398.531
1293.390
1074.192
851.001
708.120
648.395
643.052
665.693
699.016
728.434
747.401
751.547
739.381
717.735
693.685
672.631
657.655
648.612
643.912
641.307
638.279
633.699
628.229
622.007
615.596
610.733
607.868
606.297
604.727
602.347
599.252
595.602
591.727
589.004
590.216
600.976
626.244
669.190
727.590
793.960
855.012
894.716
901.395
868.056
802.826
719.291
632.185
554.905
493.326
450.111
422.567
406.530
398.152
393.951
392.303
392.305
393.164
394.092
394.378
393.329
390.813
387.424
384.218
383.308
387.252
400.196
426.814
472.347
542.418
639.945
763.875
910.426
1066.432
1215.974
1340.232
1418.010
1434.772
1391.824
1293.669
1154.574
994.102
830.216
677.002
547.318
444.960
368.080
314.039
278.065
255.084
241.376
234.661
232.834
234.709
239.442
246.137
253.783
261.338
267.948
272.969
275.845
276.719
276.245
275.061
273.844
273.250
273.741
274.942
276.249
277.035
276.506
273.883
268.672
261.100
251.518
240.431
228.745
217.396
207.151
198.330
191.217
185.924
182.193
179.701
178.116
177.126
176.406
175.678
174.825
173.798
172.544
171.102
169.540
167.925
166.334
164.823
163.449
162.257
161.261
160.480
159.918
159.601
159.568
159.832
160.339
160.962
161.574
162.086
162.498
162.837
163.102
163.220
163.066
162.526
161.530
160.141
158.433
156.487
154.360
152.097
149.771
147.421
145.089
142.814
140.642
138.603
136.732
135.076
133.654
132.457
131.447
130.602
129.887
129.327
128.953
128.781
128.821
129.052
129.459
130.013
130.708
131.543
132.529
133.661
134.901
136.213
137.537
138.821
140.001
141.017
141.793
142.271
142.439
142.321
141.926
141.268
140.368
139.213
137.821
136.198
134.444
132.683
131.049
129.685
128.692
128.166
128.195
128.883
130.327
132.657
135.998
140.475
146.160
153.014
160.998
170.055
180.083
190.743
201.652
212.405
222.609
231.818
239.589
245.426
248.884
249.741
248.089
244.065
237.819
229.521
219.579
208.457
196.639
184.576
172.665
161.221
150.560
140.991
132.770
125.919
120.388
116.134
113.109
111.212
110.255
110.056
110.427
111.196
112.216
113.350
114.487
115.487
116.233
116.616
116.541
115.896
114.582
112.616
110.114
107.211
104.027
100.713
97.366
94.122
91.089
88.392
86.133
84.421
83.339
82.972
83.419
84.741
86.944
89.995
93.888
98.594
104.072
110.172
116.756
123.660
130.745
137.816
144.636
150.956
156.496
161.022
164.309
166.302
166.931
166.173
163.965
160.324
155.399
149.409
142.569
135.067
127.131
118.948
110.735
102.675
94.989
87.857
81.386
75.610
70.585
66.347
62.938
60.382
58.665
57.782
57.716
58.464
60.009
62.352
65.478
69.391
74.070
79.524
85.682
92.474
99.841
107.696
115.984
124.563
133.293
141.958
150.403
158.425
165.876
172.583
178.431
183.285
186.987
189.432
190.527
190.328
188.839
186.115
182.182
177.092
170.948
163.940
156.200
147.916
139.223
130.289
121.243
112.195
103.290
94.635
86.372
78.569
71.280
64.544
58.403
52.892
48.054
43.853
40.227
37.113
34.446
32.163
30.199
28.521
27.094
25.890
24.874
24.021
23.295
22.674
22.129
21.637
21.173
20.709
20.232
19.735
19.226
18.705
18.179
17.647
17.117
16.595
16.091
15.610
15.162
14.757
14.398
14.089
13.830
13.620
13.460
13.351
13.290
13.270
13.279
13.308
13.346
13.382
13.406
13.414
13.407
13.380
13.335
13.271
13.186
13.090
13.006
12.951
12.946
13.013
13.170
13.444
13.863
14.462
15.272
16.326
17.654
19.288
21.240
23.518
26.126
29.072
32.367
36.011
39.985
44.231
48.695
53.315
58.041
62.809
67.565
72.210
76.672
80.842
84.631
87.957
90.716
92.867
94.374
95.249
95.450
94.980
93.810
91.949
89.437
86.363
82.805
78.830
74.529
69.967
65.232
60.382
55.495
50.637
45.878
41.284
36.929
32.846
29.045
25.526
22.299
19.365
16.729
14.395
12.349
10.569
9.030
7.711
6.587
5.637
4.836
4.168
3.616
3.166
2.800
2.505
2.264
2.062
1.892
1.751
1.632
1.531
1.444
1.365
1.290
1.219
1.150
1.083
1.018
0.955
0.893
0.832
0.772
0.714
0.657
0.602
0.550
0.500
0.454
0.410
0.370
0.332
0.298
0.267
0.240
0.215
0.194
0.175
0.159
0.146
0.134
0.124
0.116
0.109
0.102
0.097
0.093
0.090
0.087
0.084
0.082
0.080
0.078
0.077
0.075
0.074
0.072
0.071
0.070
0.068
0.067
0.066
0.064
0.063
0.061
0.060
0.058
0.057
0.055
0.054
0.052
0.051
0.050
0.048
0.047
0.046
0.045
0.044
0.043
0.042
0.041
0.041
0.040
0.039
0.039
0.038
0.038
0.038
0.037
0.037
0.036
0.036
0.035
0.034
0.033
0.033
0.032
0.031
0.030
0.028
0.027
0.026
0.024
0.023
0.022
0.020
0.019
0.017
0.016
0.015
0.013
0.012
0.011
0.010
0.009
0.008
0.007
0.006
0.005
0.005
0.004
0.003
0.003
0.002
0.002
0.002
0.001
0.001
0.001
0.001
0.001
0.001
0.000
0.000
0.000
0.000
0.000
0.000
0.000
0.000
0.000
0.000
0.000
0.000
0.000
0.000
0.000
0.000
0.000
0.000
0.000
-0.000
-0.000
-0.000
-0.000
-0.000
-0.000
-0.000
-0.000
0.000
0.000
0.000
0.000
0.000
0.000
0.000
0.000
-0.000
-0.000
-0.000
-0.000
-0.000
-0.000
-0.000
-0.000
-0.000
0.000
0.000
0.000
0.000
0.000
0
0
0
0
0
0
0
0
0
0
0
0
0
0
0
0
0
0
0
0
0
0
0
0
0
0
0
0
0
0
0
0
0
0
0
0
0
0
0
0
0
0
0
0
0
0
0
0
0
0
0
0
0
0
0
0
0
0
0
0
0
0
0
0
0
0
0
0
0
0
0
0
0
0
0
0
0
0
0
0
0
0
0
0
0
0
0
0
0
0
0
0
0
0
0
0
0
0
0
0
0
0
0
0
0
0
0
0
0
0
0
0
0
0
0
0
0
0
0
0
0
0
0
0
0
0
0
0
0
0
0
0
0
0
0
0
0
0
0
0
0
0
0
0
0
0
0
0
0
0
0
0
0
0
0
0
0
0
0
0
0
0
0
0
0
0
0
0
0
0
0
0
0
0
0
0
0
0
0
0
0
0
0
0
0
0
0
0
0
0
0
0
0
0
0
0
0
0
0
0
0
0
0
0
0
0
0
0
0
0
0
0
0
0
0
0
0
0
0
0
0
0
0
0
0
0
0
0
0
0
0
0
0
0
0
0
0
0
0
0
0
0
0
0
0
0
0
0
0
0
0
0
0
0
0
0
0
0
0
0
0
0
0
0
0
0
0
0
0
0
0
0
0
0
0
0
0
0
0
0
0
0
0
0
0
0
0
0
0
0
0
0
0
0
0
0
0
0
0
0
0
0
0
0
0
0
0
0
0
0
0
0
0
0
0
0
0
0
0
0
0
0
0
0
0
0
0
0
0
0
0
0
0
0
0
0
0
0
0
0
0
0
0
0
0
0
0
0
0
0
0
0
0
0
0
0
0
0
0
0
0
0
0
0
0
0
0
0
0
0
0
0
0
0
0
0
0
0
0
0
0
0
0
0
0
0
0
0
0
0
0
0
0
0
0
0
0
0
0
0
0
0
0
0
0
0
0
0
0
0
0
0
0
0
0
0
0
0
0
0
0
0
0
0
0
0
0
0
0
0
0
0
0
0
0
0
0
0
0
0
0
0
0
0
0
0
0
0
0
0
0
0
0
0
0
0
0
0
0
0
0
0
0
0
0
0
0
0
0
0
0
0
0
0
0
0
0
0
0
0
0
0
0
0
0
0
0
0
0
0
0
0
0
0
0
0
0
0
0
0
0
0
0
$MCA_CAL:
3
-1.4656616 2.9313233 0.00000000000000
$ENER_FIT:
-1.4656616 2.9313233 0.00000000000000
$MCA_CAL_DATA:
3
298 872
597 1749
896 2625
$CAMBIO:
Parent file specification: C:\GADRAS-DRF\Temp\152EU_50.0_50.0_lead_0.51_7.0.pcf
Successful read of spectrum: Yes
Error message: None
Warning: None
Information: None
Neutrons: 0
Number of spectral records in the parent file: 1
Record number of this spectrum in the parent file: 1
Date and time of acquisition read successfully from the original file: Yes
Live time read successfully from the original file: Yes
True time read successfully from the original file: Yes
GADRAS Tag character is:  
Version: 130122
Parent file type: Sandia GADRAS PCF
