$SPEC_ID:
152EU,1uC{82,1.61}
$MEAS_TIM:
3600.00 3600.00
$DATE_MEA:
3/9/2018 5:22:25 PM
$DATA:
0 1193
1467.287
1365.000
1256.254
1241.958
1097.268
972.855
859.825
764.251
683.153
610.662
570.404
536.048
502.742
479.827
467.233
459.460
454.533
454.746
461.512
472.234
486.108
500.819
511.694
511.923
506.759
502.071
497.872
496.082
494.753
494.166
494.648
495.937
497.691
498.388
499.107
500.161
501.953
504.630
508.078
512.415
516.938
520.297
521.691
522.785
526.196
533.879
545.710
561.987
581.922
601.172
617.125
628.516
632.299
627.326
616.261
602.447
589.122
577.768
569.024
562.891
558.757
555.338
552.045
549.041
546.186
543.143
540.453
539.104
538.500
537.241
535.064
532.386
529.736
527.714
527.199
529.283
534.979
545.106
559.637
576.633
593.628
606.911
612.622
608.553
593.583
568.582
537.313
503.582
470.461
440.729
415.945
396.586
382.726
373.329
367.156
363.262
360.898
359.433
358.509
357.876
357.535
357.864
359.354
363.220
371.120
384.726
405.836
436.290
477.354
529.218
591.840
663.086
738.020
811.569
877.422
928.286
957.054
961.024
940.773
897.125
834.196
758.289
675.792
592.331
513.030
442.841
384.155
336.743
300.220
273.709
255.520
243.926
237.326
234.573
234.567
236.269
239.004
242.208
245.337
248.084
250.352
252.031
253.100
253.662
253.865
253.821
253.504
252.824
251.671
249.948
247.507
244.232
240.006
234.885
229.047
222.652
215.906
209.075
202.462
196.345
190.909
186.167
182.144
178.853
176.208
174.086
172.344
170.865
169.558
168.362
167.202
166.033
164.862
163.710
162.609
161.579
160.621
159.739
158.930
158.215
157.611
157.152
156.880
156.798
156.852
156.969
157.075
157.108
157.044
156.886
156.620
156.242
155.725
155.050
154.177
153.082
151.767
150.283
148.668
146.956
145.206
143.429
141.654
139.900
138.201
136.573
135.040
133.636
132.378
131.282
130.342
129.565
128.929
128.438
128.096
127.897
127.843
127.933
128.171
128.534
129.008
129.574
130.224
130.928
131.650
132.376
133.068
133.698
134.242
134.687
135.003
135.173
135.179
135.036
134.747
134.326
133.797
133.163
132.480
131.794
131.162
130.626
130.244
130.109
130.300
130.907
132.015
133.701
135.977
138.855
142.347
146.464
151.195
156.446
162.119
168.098
174.278
180.536
186.693
192.519
197.803
202.322
205.885
208.353
209.696
209.881
208.854
206.574
203.089
198.544
193.111
186.955
180.254
173.169
165.887
158.594
151.477
144.723
138.513
132.948
128.018
123.718
120.037
116.976
114.509
112.576
111.097
110.003
109.211
108.638
108.218
107.864
107.498
107.038
106.411
105.537
104.412
103.090
101.611
100.029
98.380
96.734
95.129
93.646
92.340
91.284
90.530
90.147
90.161
90.588
91.464
92.803
94.638
96.959
99.721
102.848
106.280
109.936
113.763
117.671
121.561
125.302
128.787
131.908
134.529
136.572
137.981
138.746
138.819
138.194
136.831
134.730
131.940
128.560
124.692
120.408
115.819
111.005
106.076
101.118
96.250
91.562
87.168
83.156
79.616
76.580
74.080
72.159
70.845
70.178
70.180
70.845
72.140
74.051
76.542
79.601
83.187
87.279
91.789
96.652
101.809
107.177
112.703
118.293
123.883
129.335
134.570
139.461
143.928
147.843
151.141
153.791
155.745
157.000
157.503
157.252
156.194
154.366
151.817
148.615
144.800
140.457
135.620
130.375
124.768
118.890
112.816
106.607
100.356
94.122
87.993
82.004
76.208
70.641
65.347
60.358
55.726
51.477
47.609
44.104
40.935
38.084
35.521
33.232
31.188
29.373
27.761
26.339
25.079
23.965
22.975
22.087
21.291
20.571
19.923
19.331
18.789
18.285
17.810
17.356
16.925
16.517
16.132
15.770
15.430
15.116
14.825
14.559
14.318
14.101
13.907
13.738
13.592
13.471
13.373
13.300
13.251
13.226
13.225
13.248
13.296
13.369
13.476
13.627
13.830
14.094
14.429
14.843
15.345
15.947
16.660
17.497
18.467
19.585
20.861
22.309
23.936
25.743
27.720
29.860
32.152
34.587
37.161
39.860
42.674
45.571
48.517
51.468
54.396
57.257
60.022
62.644
65.104
67.359
69.379
71.147
72.619
73.780
74.585
75.026
75.065
74.730
74.029
72.991
71.624
69.955
68.002
65.775
63.309
60.628
57.779
54.790
51.707
48.563
45.399
42.247
39.148
36.114
33.168
30.318
27.585
24.982
22.521
20.223
18.097
16.146
14.361
12.736
11.263
9.933
8.740
7.676
6.734
5.904
5.178
4.546
4.000
3.528
3.123
2.775
2.473
2.211
1.982
1.784
1.613
1.466
1.338
1.228
1.130
1.043
0.963
0.890
0.823
0.762
0.705
0.653
0.605
0.560
0.518
0.478
0.440
0.405
0.372
0.341
0.312
0.286
0.262
0.240
0.220
0.202
0.185
0.171
0.158
0.146
0.135
0.126
0.118
0.110
0.104
0.098
0.093
0.089
0.085
0.081
0.078
0.075
0.073
0.071
0.069
0.067
0.065
0.063
0.062
0.060
0.059
0.057
0.056
0.055
0.053
0.052
0.051
0.050
0.049
0.047
0.046
0.045
0.044
0.043
0.043
0.042
0.041
0.040
0.039
0.038
0.038
0.037
0.036
0.035
0.035
0.034
0.033
0.032
0.031
0.031
0.030
0.029
0.028
0.027
0.026
0.025
0.024
0.023
0.022
0.021
0.020
0.019
0.018
0.017
0.016
0.015
0.014
0.013
0.012
0.011
0.010
0.010
0.009
0.008
0.007
0.007
0.006
0.005
0.005
0.004
0.004
0.003
0.003
0.003
0.002
0.002
0.002
0.002
0.001
0.001
0.001
0.001
0.001
0.001
0.001
0.000
0.000
0.000
0.000
0.000
0.000
0.000
0.000
0.000
0.000
0.000
0.000
0.000
0.000
0.000
0.000
0.000
0.000
0.000
0.000
0.000
0.000
0.000
0.000
0.000
0.000
0.000
0.000
0.000
0.000
-0.000
-0.000
-0.000
-0.000
-0.000
-0.000
-0.000
-0.000
-0.000
-0.000
0.000
0.000
0.000
0.000
0.000
0.000
0.000
0.000
0.000
0.000
0.000
-0.000
-0.000
-0.000
-0.000
-0.000
-0.000
-0.000
-0.000
-0.000
-0.000
0.000
0.000
0.000
0.000
0.000
0.000
0
0
0
0
0
0
0
0
0
0
0
0
0
0
0
0
0
0
0
0
0
0
0
0
0
0
0
0
0
0
0
0
0
0
0
0
0
0
0
0
0
0
0
0
0
0
0
0
0
0
0
0
0
0
0
0
0
0
0
0
0
0
0
0
0
0
0
0
0
0
0
0
0
0
0
0
0
0
0
0
0
0
0
0
0
0
0
0
0
0
0
0
0
0
0
0
0
0
0
0
0
0
0
0
0
0
0
0
0
0
0
0
0
0
0
0
0
0
0
0
0
0
0
0
0
0
0
0
0
0
0
0
0
0
0
0
0
0
0
0
0
0
0
0
0
0
0
0
0
0
0
0
0
0
0
0
0
0
0
0
0
0
0
0
0
0
0
0
0
0
0
0
0
0
0
0
0
0
0
0
0
0
0
0
0
0
0
0
0
0
0
0
0
0
0
0
0
0
0
0
0
0
0
0
0
0
0
0
0
0
0
0
0
0
0
0
0
0
0
0
0
0
0
0
0
0
0
0
0
0
0
0
0
0
0
0
0
0
0
0
0
0
0
0
0
0
0
0
0
0
0
0
0
0
0
0
0
0
0
0
0
0
0
0
0
0
0
0
0
0
0
0
0
0
0
0
0
0
0
0
0
0
0
0
0
0
0
0
0
0
0
0
0
0
0
0
0
0
0
0
0
0
0
0
0
0
0
0
0
0
0
0
0
0
0
0
0
0
0
0
0
0
0
0
0
0
0
0
0
0
0
0
0
0
0
0
0
0
0
0
0
0
0
0
0
0
0
0
0
0
0
0
0
0
0
0
0
0
0
0
0
0
0
0
0
0
0
0
0
0
0
0
0
0
0
0
0
0
0
0
0
0
0
0
0
0
0
0
0
0
0
0
0
0
0
0
0
0
0
0
0
0
0
0
0
0
0
0
0
0
0
0
0
0
0
0
0
0
0
0
0
0
0
0
0
0
0
0
0
0
0
0
0
0
0
0
0
0
0
0
0
0
0
0
0
0
0
0
0
0
0
0
0
0
0
0
0
0
0
0
0
0
0
0
0
0
0
0
0
0
0
0
0
0
0
0
0
0
$MCA_CAL:
3
-1.4656616 2.9313233 0.00000000000000
$ENER_FIT:
-1.4656616 2.9313233 0.00000000000000
$MCA_CAL_DATA:
3
298 872
597 1749
896 2625
$CAMBIO:
Parent file specification: C:\GADRAS-DRF\Temp\152EU_50.0_50.0_lead_1.61_8.5.pcf
Successful read of spectrum: Yes
Error message: None
Warning: None
Information: None
Neutrons: 0
Number of spectral records in the parent file: 1
Record number of this spectrum in the parent file: 1
Date and time of acquisition read successfully from the original file: Yes
Live time read successfully from the original file: Yes
True time read successfully from the original file: Yes
GADRAS Tag character is:  
Version: 130122
Parent file type: Sandia GADRAS PCF
