$SPEC_ID:
152EU,1uC{13,4.18}
$MEAS_TIM:
3600.00 3600.00
$DATE_MEA:
3/9/2018 5:22:25 PM
$DATA:
0 1193
1214.109
1214.182
1251.234
1826.389
1527.453
1193.587
980.396
786.081
715.466
672.245
766.063
1244.439
2847.263
4248.830
3120.473
2020.467
1212.676
742.239
685.522
747.823
819.080
896.473
964.267
1007.737
1062.174
1134.004
1202.092
1247.684
1278.889
1322.235
1381.519
1447.314
1490.474
1503.123
1513.816
1537.988
1604.250
1779.358
2136.823
2733.253
3345.041
3537.435
3068.230
2236.996
1468.674
997.900
805.173
755.195
756.629
770.147
777.924
776.179
766.088
750.532
735.651
725.263
719.536
717.097
717.316
719.660
722.659
724.448
724.213
722.415
719.419
714.390
708.685
703.604
698.149
691.601
683.854
675.434
665.548
653.142
640.698
632.466
634.016
650.907
687.197
741.250
806.201
868.452
911.173
917.170
883.472
816.110
731.211
645.929
573.960
522.393
488.874
469.344
458.846
454.023
452.959
454.068
455.974
457.965
459.682
460.553
459.852
457.419
453.537
449.109
445.600
444.813
448.946
461.817
489.272
536.703
608.258
706.024
825.855
960.707
1093.075
1202.126
1270.199
1282.183
1233.885
1135.889
1001.912
851.422
704.289
573.106
466.705
388.091
332.662
295.374
271.485
256.457
247.410
242.889
241.680
243.263
247.201
252.829
259.333
265.824
271.259
274.600
275.575
274.601
272.208
269.219
266.569
264.928
264.553
265.609
267.430
268.809
268.615
266.318
261.542
254.215
244.961
234.479
223.568
213.099
203.935
196.433
190.617
186.455
183.690
181.957
180.886
180.187
179.573
178.816
177.847
176.659
175.246
173.666
171.981
170.252
168.559
166.974
165.549
164.280
163.140
162.133
161.305
160.734
160.488
160.490
160.633
160.811
160.991
161.184
161.395
161.586
161.646
161.478
161.011
160.239
159.143
157.733
156.057
154.188
152.182
150.079
147.943
145.804
143.703
141.662
139.715
137.882
136.193
134.688
133.386
132.283
131.336
130.521
129.798
129.189
128.719
128.398
128.228
128.193
128.288
128.499
128.835
129.301
129.915
130.661
131.505
132.437
133.413
134.376
135.256
135.992
136.521
136.814
136.840
136.582
136.032
135.216
134.175
132.918
131.491
129.920
128.249
126.518
124.827
123.297
122.032
121.132
120.648
120.639
121.148
122.271
124.175
127.035
131.020
136.206
142.555
150.009
158.512
167.846
177.626
187.433
196.864
205.466
212.765
218.239
221.413
222.063
220.277
216.178
209.904
201.697
192.027
181.376
170.242
159.055
148.170
137.919
128.638
120.599
113.833
108.325
104.043
100.955
98.943
97.860
97.546
97.849
98.628
99.764
101.125
102.580
104.008
105.258
106.184
106.640
106.505
105.765
104.455
102.614
100.273
97.512
94.443
91.209
87.911
84.686
81.639
78.892
76.548
74.729
73.507
72.926
73.043
73.897
75.532
77.934
81.103
85.020
89.680
95.000
100.860
107.114
113.637
120.265
126.764
132.864
138.267
142.715
145.968
147.953
148.580
147.804
145.546
141.881
136.995
131.112
124.454
117.214
109.631
101.911
94.286
86.964
80.158
73.944
68.366
63.454
59.255
55.794
53.050
51.007
49.633
48.905
48.803
49.334
50.500
52.317
54.784
57.915
61.694
66.135
71.216
76.936
83.273
90.122
97.392
104.958
112.747
120.603
128.367
135.825
142.804
149.087
154.514
158.983
162.389
164.672
165.720
165.492
163.991
161.311
157.519
152.694
146.895
140.275
132.981
125.202
117.086
108.816
100.536
92.345
84.370
76.708
69.483
62.773
56.616
51.028
46.028
41.630
37.853
34.649
31.950
29.689
27.795
26.198
24.844
23.710
22.767
21.995
21.365
20.858
20.441
20.092
19.779
19.474
19.154
18.798
18.413
17.996
17.553
17.082
16.589
16.081
15.569
15.063
14.576
14.115
13.691
13.310
12.975
12.692
12.467
12.304
12.200
12.149
12.142
12.174
12.234
12.317
12.410
12.502
12.580
12.633
12.648
12.617
12.544
12.433
12.290
12.118
11.924
11.720
11.527
11.373
11.281
11.275
11.379
11.624
12.040
12.662
13.520
14.650
16.083
17.840
19.927
22.353
25.127
28.254
31.743
35.564
39.661
43.971
48.442
53.007
57.615
62.172
66.594
70.762
74.575
77.940
80.743
82.931
84.464
85.344
85.526
85.003
83.743
81.775
79.164
76.006
72.384
68.373
64.068
59.542
54.887
50.170
45.480
40.894
36.493
32.344
28.476
24.892
21.605
18.620
15.946
13.591
11.540
9.772
8.256
6.970
5.884
4.975
4.218
3.597
3.092
2.688
2.366
2.111
1.905
1.739
1.608
1.503
1.420
1.350
1.289
1.231
1.176
1.123
1.071
1.019
0.967
0.913
0.859
0.804
0.749
0.694
0.640
0.587
0.535
0.485
0.437
0.392
0.350
0.312
0.277
0.246
0.219
0.195
0.174
0.156
0.140
0.127
0.116
0.107
0.099
0.093
0.088
0.083
0.080
0.077
0.074
0.072
0.071
0.069
0.068
0.067
0.066
0.065
0.064
0.063
0.062
0.061
0.060
0.059
0.057
0.056
0.055
0.054
0.053
0.051
0.050
0.048
0.047
0.046
0.044
0.043
0.042
0.040
0.039
0.038
0.037
0.036
0.035
0.035
0.034
0.034
0.033
0.033
0.033
0.032
0.032
0.032
0.032
0.032
0.031
0.031
0.031
0.030
0.030
0.029
0.028
0.027
0.026
0.025
0.024
0.023
0.021
0.020
0.019
0.017
0.016
0.014
0.013
0.012
0.011
0.010
0.008
0.007
0.007
0.006
0.005
0.004
0.004
0.003
0.003
0.002
0.002
0.001
0.001
0.001
0.001
0.001
0.001
0.000
0.000
0.000
0.000
0.000
0.000
0.000
0.000
0.000
0.000
0.000
0.000
0.000
0.000
0.000
0.000
0.000
0.000
0.000
0.000
0.000
0.000
0.000
-0.000
-0.000
-0.000
-0.000
-0.000
-0.000
-0.000
0.000
0.000
0.000
0.000
0.000
0.000
0.000
0.000
-0.000
-0.000
-0.000
-0.000
-0.000
-0.000
-0.000
-0.000
0.000
0.000
0.000
0.000
0
0
0
0
0
0
0
0
0
0
0
0
0
0
0
0
0
0
0
0
0
0
0
0
0
0
0
0
0
0
0
0
0
0
0
0
0
0
0
0
0
0
0
0
0
0
0
0
0
0
0
0
0
0
0
0
0
0
0
0
0
0
0
0
0
0
0
0
0
0
0
0
0
0
0
0
0
0
0
0
0
0
0
0
0
0
0
0
0
0
0
0
0
0
0
0
0
0
0
0
0
0
0
0
0
0
0
0
0
0
0
0
0
0
0
0
0
0
0
0
0
0
0
0
0
0
0
0
0
0
0
0
0
0
0
0
0
0
0
0
0
0
0
0
0
0
0
0
0
0
0
0
0
0
0
0
0
0
0
0
0
0
0
0
0
0
0
0
0
0
0
0
0
0
0
0
0
0
0
0
0
0
0
0
0
0
0
0
0
0
0
0
0
0
0
0
0
0
0
0
0
0
0
0
0
0
0
0
0
0
0
0
0
0
0
0
0
0
0
0
0
0
0
0
0
0
0
0
0
0
0
0
0
0
0
0
0
0
0
0
0
0
0
0
0
0
0
0
0
0
0
0
0
0
0
0
0
0
0
0
0
0
0
0
0
0
0
0
0
0
0
0
0
0
0
0
0
0
0
0
0
0
0
0
0
0
0
0
0
0
0
0
0
0
0
0
0
0
0
0
0
0
0
0
0
0
0
0
0
0
0
0
0
0
0
0
0
0
0
0
0
0
0
0
0
0
0
0
0
0
0
0
0
0
0
0
0
0
0
0
0
0
0
0
0
0
0
0
0
0
0
0
0
0
0
0
0
0
0
0
0
0
0
0
0
0
0
0
0
0
0
0
0
0
0
0
0
0
0
0
0
0
0
0
0
0
0
0
0
0
0
0
0
0
0
0
0
0
0
0
0
0
0
0
0
0
0
0
0
0
0
0
0
0
0
0
0
0
0
0
0
0
0
0
0
0
0
0
0
0
0
0
0
0
0
0
0
0
0
0
0
0
0
0
0
0
0
0
0
0
0
0
0
0
0
0
0
0
0
0
0
0
0
0
0
0
0
0
0
0
0
0
0
0
0
0
0
0
0
0
0
0
0
0
0
0
0
0
0
0
0
0
0
0
0
0
0
0
0
0
0
0
0
0
0
$MCA_CAL:
3
-1.4656616 2.9313233 0.00000000000000
$ENER_FIT:
-1.4656616 2.9313233 0.00000000000000
$MCA_CAL_DATA:
3
298 872
597 1749
896 2625
$CAMBIO:
Parent file specification: C:\GADRAS-DRF\Temp\152EU_100.0_50.0_alum_4.18_6.5.pcf
Successful read of spectrum: Yes
Error message: None
Warning: None
Information: None
Neutrons: 0
Number of spectral records in the parent file: 1
Record number of this spectrum in the parent file: 1
Date and time of acquisition read successfully from the original file: Yes
Live time read successfully from the original file: Yes
True time read successfully from the original file: Yes
GADRAS Tag character is:  
Version: 130122
Parent file type: Sandia GADRAS PCF
