$SPEC_ID:
152EU,1uC{26,3.50}
$MEAS_TIM:
3600.00 3600.00
$DATE_MEA:
3/9/2018 5:22:25 PM
$DATA:
0 1193
1255.042
1210.334
1113.434
1302.852
1111.606
965.401
840.576
739.297
659.416
590.264
549.623
514.549
481.780
459.459
445.414
435.820
428.394
425.827
431.293
443.295
468.414
500.323
528.822
545.277
567.782
602.364
644.988
676.396
700.063
741.055
804.728
872.203
926.519
954.239
981.579
1022.729
1106.272
1283.514
1587.820
2026.319
2444.435
2569.174
2293.516
1761.623
1223.547
870.165
699.941
645.832
645.635
659.647
668.890
670.496
664.921
653.398
642.082
634.627
631.769
632.405
635.820
641.161
647.063
651.865
654.696
655.739
654.769
651.942
648.442
644.861
641.074
636.202
629.988
623.242
615.453
605.830
597.359
594.490
602.362
624.814
663.508
715.950
775.564
830.406
866.016
872.231
843.158
785.875
712.229
635.426
567.573
513.995
477.082
454.190
441.386
435.555
433.962
434.771
436.540
438.509
440.238
441.246
440.968
439.327
436.874
434.485
433.788
436.776
446.832
467.812
504.134
560.602
639.446
739.133
856.059
979.860
1098.102
1195.470
1254.296
1262.636
1222.167
1137.196
1019.292
883.919
745.626
616.601
508.066
422.958
359.061
313.714
283.143
263.433
251.584
245.578
243.544
244.497
247.782
252.684
258.370
263.968
268.766
272.223
273.874
273.850
272.718
271.029
269.347
268.209
267.989
268.363
268.809
268.804
267.712
264.921
260.046
253.288
244.950
235.447
225.495
215.830
207.061
199.460
193.275
188.605
185.235
182.898
181.314
180.227
179.364
178.497
177.528
176.422
175.138
173.705
172.179
170.609
169.060
167.577
166.207
164.987
163.926
163.046
162.346
161.847
161.579
161.552
161.719
161.981
162.232
162.402
162.487
162.511
162.467
162.299
161.904
161.197
160.119
158.729
157.090
155.277
153.332
151.284
149.191
147.077
144.981
142.931
140.970
139.120
137.411
135.879
134.541
133.387
132.389
131.530
130.778
130.157
129.693
129.399
129.282
129.324
129.512
129.820
130.241
130.776
131.435
132.213
133.076
133.998
134.925
135.816
136.619
137.289
137.765
138.002
137.991
137.752
137.287
136.608
135.733
134.648
133.368
131.897
130.318
128.736
127.263
126.019
125.082
124.527
124.420
124.840
125.867
127.613
130.185
133.695
138.203
143.680
150.096
157.405
165.521
174.157
182.991
191.679
199.888
207.252
213.414
217.969
220.558
221.003
219.384
215.816
210.428
203.361
194.948
185.571
175.621
165.469
155.442
145.807
136.831
128.776
121.855
116.088
111.423
107.823
105.241
103.593
102.723
102.481
102.713
103.277
104.051
104.920
105.790
106.544
107.082
107.316
107.165
106.537
105.349
103.618
101.440
98.931
96.190
93.348
90.484
87.711
85.116
82.806
80.861
79.376
78.420
78.065
78.396
79.464
81.271
83.784
86.996
90.877
95.392
100.418
105.844
111.536
117.384
123.225
128.858
134.071
138.627
142.327
144.977
146.538
146.950
146.200
144.236
141.076
136.844
131.722
125.893
119.511
112.768
105.822
98.856
92.026
85.515
79.479
74.006
69.121
64.870
61.281
58.386
56.207
54.733
53.962
53.882
54.493
55.780
57.744
60.366
63.650
67.572
72.141
77.294
82.977
89.142
95.717
102.659
109.848
117.165
124.424
131.497
138.208
144.432
150.023
154.885
158.907
161.955
163.942
164.789
164.543
163.202
160.812
157.393
152.986
147.682
141.644
134.989
127.880
120.434
112.796
105.074
97.357
89.765
82.387
75.339
68.680
62.456
56.701
51.454
46.745
42.612
39.026
35.930
33.272
30.994
29.042
27.359
25.919
24.690
23.651
22.772
22.032
21.400
20.859
20.384
19.952
19.546
19.139
18.720
18.284
17.838
17.382
16.922
16.458
15.996
15.542
15.103
14.685
14.295
13.941
13.626
13.353
13.123
12.936
12.790
12.689
12.629
12.605
12.605
12.622
12.648
12.670
12.683
12.682
12.667
12.635
12.589
12.525
12.445
12.355
12.276
12.222
12.212
12.265
12.396
12.627
12.985
13.497
14.191
15.095
16.234
17.636
19.311
21.265
23.503
26.030
28.855
31.978
35.383
39.022
42.847
46.805
50.856
54.943
59.021
63.003
66.829
70.402
73.646
76.490
78.842
80.668
81.938
82.662
82.803
82.366
81.325
79.690
77.494
74.814
71.718
68.262
64.527
60.568
56.460
52.255
48.018
43.809
39.688
35.710
31.942
28.410
25.123
22.082
19.293
16.758
14.480
12.463
10.693
9.153
7.822
6.680
5.707
4.884
4.191
3.614
3.137
2.748
2.432
2.177
1.969
1.794
1.648
1.525
1.422
1.334
1.257
1.189
1.124
1.061
1.001
0.943
0.887
0.832
0.778
0.725
0.673
0.622
0.572
0.525
0.479
0.436
0.395
0.357
0.322
0.290
0.260
0.233
0.209
0.188
0.170
0.153
0.140
0.128
0.117
0.109
0.101
0.095
0.090
0.086
0.082
0.079
0.076
0.074
0.072
0.070
0.069
0.067
0.066
0.065
0.064
0.063
0.061
0.060
0.059
0.058
0.056
0.055
0.054
0.053
0.051
0.050
0.049
0.047
0.046
0.045
0.044
0.043
0.041
0.040
0.039
0.039
0.038
0.037
0.036
0.036
0.035
0.035
0.034
0.034
0.033
0.033
0.033
0.032
0.032
0.031
0.031
0.030
0.029
0.029
0.028
0.027
0.026
0.025
0.024
0.023
0.021
0.020
0.019
0.018
0.017
0.015
0.014
0.013
0.012
0.011
0.010
0.009
0.008
0.007
0.006
0.005
0.005
0.004
0.003
0.003
0.002
0.002
0.002
0.002
0.001
0.001
0.001
0.001
0.001
0.000
0.000
0.000
0.000
0.000
0.000
0.000
0.000
0.000
0.000
0.000
0.000
0.000
0.000
0.000
0.000
0.000
0.000
0.000
0.000
-0.000
-0.000
-0.000
-0.000
-0.000
-0.000
-0.000
-0.000
0.000
0.000
0.000
0.000
0.000
0.000
0.000
0.000
-0.000
-0.000
-0.000
-0.000
-0.000
-0.000
-0.000
-0.000
-0.000
0.000
0.000
0.000
0.000
0.000
0
0
0
0
0
0
0
0
0
0
0
0
0
0
0
0
0
0
0
0
0
0
0
0
0
0
0
0
0
0
0
0
0
0
0
0
0
0
0
0
0
0
0
0
0
0
0
0
0
0
0
0
0
0
0
0
0
0
0
0
0
0
0
0
0
0
0
0
0
0
0
0
0
0
0
0
0
0
0
0
0
0
0
0
0
0
0
0
0
0
0
0
0
0
0
0
0
0
0
0
0
0
0
0
0
0
0
0
0
0
0
0
0
0
0
0
0
0
0
0
0
0
0
0
0
0
0
0
0
0
0
0
0
0
0
0
0
0
0
0
0
0
0
0
0
0
0
0
0
0
0
0
0
0
0
0
0
0
0
0
0
0
0
0
0
0
0
0
0
0
0
0
0
0
0
0
0
0
0
0
0
0
0
0
0
0
0
0
0
0
0
0
0
0
0
0
0
0
0
0
0
0
0
0
0
0
0
0
0
0
0
0
0
0
0
0
0
0
0
0
0
0
0
0
0
0
0
0
0
0
0
0
0
0
0
0
0
0
0
0
0
0
0
0
0
0
0
0
0
0
0
0
0
0
0
0
0
0
0
0
0
0
0
0
0
0
0
0
0
0
0
0
0
0
0
0
0
0
0
0
0
0
0
0
0
0
0
0
0
0
0
0
0
0
0
0
0
0
0
0
0
0
0
0
0
0
0
0
0
0
0
0
0
0
0
0
0
0
0
0
0
0
0
0
0
0
0
0
0
0
0
0
0
0
0
0
0
0
0
0
0
0
0
0
0
0
0
0
0
0
0
0
0
0
0
0
0
0
0
0
0
0
0
0
0
0
0
0
0
0
0
0
0
0
0
0
0
0
0
0
0
0
0
0
0
0
0
0
0
0
0
0
0
0
0
0
0
0
0
0
0
0
0
0
0
0
0
0
0
0
0
0
0
0
0
0
0
0
0
0
0
0
0
0
0
0
0
0
0
0
0
0
0
0
0
0
0
0
0
0
0
0
0
0
0
0
0
0
0
0
0
0
0
0
0
0
0
0
0
0
0
0
0
0
0
0
0
0
0
0
0
0
0
0
0
0
0
0
0
0
0
0
0
0
0
0
0
0
0
0
0
0
0
0
0
0
0
0
0
0
0
0
0
$MCA_CAL:
3
-1.4656616 2.9313233 0.00000000000000
$ENER_FIT:
-1.4656616 2.9313233 0.00000000000000
$MCA_CAL_DATA:
3
298 872
597 1749
896 2625
$CAMBIO:
Parent file specification: C:\GADRAS-DRF\Temp\152EU_100.0_50.0_iron_3.50_7.0.pcf
Successful read of spectrum: Yes
Error message: None
Warning: None
Information: None
Neutrons: 0
Number of spectral records in the parent file: 1
Record number of this spectrum in the parent file: 1
Date and time of acquisition read successfully from the original file: Yes
Live time read successfully from the original file: Yes
True time read successfully from the original file: Yes
GADRAS Tag character is:  
Version: 130122
Parent file type: Sandia GADRAS PCF
