$SPEC_ID:
152EU,1uC{26,6.28}
$MEAS_TIM:
3600.00 3600.00
$DATE_MEA:
3/9/2018 5:22:25 PM
$DATA:
0 1193
1262.300
1222.350
1133.146
1598.408
1349.267
1167.196
1012.534
887.648
792.615
710.390
662.556
621.672
584.415
560.536
547.014
539.472
536.330
540.956
556.300
579.309
616.787
661.362
697.924
712.467
729.182
753.875
785.724
808.086
816.705
832.174
863.798
902.805
940.367
959.384
981.118
1010.012
1059.041
1153.066
1301.659
1516.235
1721.895
1775.661
1624.970
1346.498
1068.062
892.536
813.053
794.779
807.722
830.732
852.184
867.867
873.391
865.641
849.923
832.188
816.579
804.752
796.626
791.267
787.232
783.012
777.800
771.725
764.945
757.977
751.978
747.256
743.319
739.219
734.489
729.439
723.472
715.728
707.610
701.910
703.191
714.565
736.606
767.512
803.126
834.905
852.247
848.050
818.493
769.203
709.141
647.599
592.941
548.852
516.989
495.432
481.388
472.821
467.979
465.465
464.038
463.061
462.160
460.917
458.822
455.795
452.308
449.012
446.989
447.589
453.340
467.180
492.568
533.335
591.135
664.442
750.243
840.914
927.349
997.851
1038.611
1040.452
1005.225
936.807
843.957
738.014
629.874
529.181
444.872
379.054
329.591
294.142
269.930
254.149
244.555
239.531
237.563
237.893
240.032
243.437
247.457
251.404
254.714
256.955
257.757
257.231
255.845
254.049
252.289
250.983
250.418
250.327
250.282
249.863
248.574
245.942
241.676
235.943
228.998
221.169
213.011
205.087
197.870
191.583
186.430
182.494
179.601
177.536
176.072
175.003
174.110
173.212
172.231
171.143
169.915
168.573
167.158
165.708
164.275
162.896
161.607
160.438
159.397
158.502
157.751
157.162
156.761
156.553
156.504
156.529
156.544
156.490
156.364
156.187
155.952
155.614
155.091
154.315
153.239
151.916
150.399
148.755
147.015
145.198
143.349
141.486
139.637
137.828
136.094
134.452
132.926
131.546
130.325
129.255
128.313
127.486
126.747
126.115
125.615
125.256
125.045
124.965
125.005
125.143
125.373
125.695
126.119
126.640
127.230
127.867
128.507
129.114
129.647
130.073
130.341
130.418
130.294
129.988
129.498
128.835
128.013
127.017
125.860
124.544
123.140
121.734
120.421
119.301
118.437
117.886
117.699
117.938
118.666
119.981
121.976
124.746
128.346
132.750
137.937
143.867
150.471
157.506
164.699
171.759
178.406
184.337
189.261
192.847
194.801
194.981
193.455
190.319
185.686
179.670
172.549
164.632
156.244
147.688
139.235
131.112
123.542
116.750
110.915
106.050
102.110
99.059
96.856
95.428
94.647
94.389
94.525
94.940
95.529
96.197
96.864
97.432
97.818
97.945
97.749
97.150
96.081
94.554
92.654
90.478
88.111
85.664
83.202
80.821
78.592
76.604
74.925
73.634
72.791
72.455
72.702
73.573
75.067
77.155
79.828
83.058
86.815
90.994
95.508
100.247
105.118
109.988
114.683
119.024
122.807
125.861
128.024
129.261
129.526
128.808
127.066
124.318
120.666
116.267
111.272
105.813
100.050
94.120
88.176
82.350
76.802
71.660
67.000
62.841
59.220
56.161
53.689
51.822
50.553
49.880
49.797
50.304
51.389
53.051
55.274
58.056
61.378
65.243
69.602
74.407
79.620
85.181
91.056
97.141
103.337
109.483
115.467
121.141
126.396
131.109
135.199
138.572
141.113
142.752
143.418
143.151
141.948
139.847
136.862
133.029
128.425
123.193
117.436
111.294
104.872
98.294
91.651
85.018
78.494
72.154
66.095
60.366
55.009
50.054
45.535
41.479
37.921
34.833
32.168
29.879
27.916
26.233
24.779
23.532
22.465
21.561
20.794
20.147
19.593
19.118
18.699
18.318
17.959
17.599
17.229
16.844
16.450
16.048
15.643
15.235
14.829
14.431
14.046
13.679
13.337
13.025
12.747
12.505
12.300
12.132
12.000
11.906
11.848
11.821
11.816
11.825
11.841
11.855
11.860
11.852
11.833
11.799
11.752
11.691
11.615
11.532
11.458
11.407
11.394
11.435
11.546
11.744
12.052
12.495
13.095
13.878
14.866
16.081
17.532
19.226
21.165
23.354
25.801
28.505
31.453
34.603
37.914
41.341
44.848
48.387
51.919
55.368
58.682
61.775
64.581
67.037
69.065
70.634
71.717
72.324
72.424
72.021
71.092
69.646
67.713
65.360
62.645
59.618
56.348
52.883
49.291
45.613
41.911
38.233
34.633
31.160
27.871
24.789
21.922
19.270
16.839
14.629
12.643
10.883
9.340
7.996
6.833
5.836
4.987
4.269
3.664
3.160
2.744
2.405
2.131
1.909
1.727
1.575
1.447
1.339
1.248
1.171
1.104
1.044
0.987
0.932
0.879
0.828
0.779
0.731
0.683
0.637
0.591
0.546
0.503
0.461
0.421
0.383
0.347
0.314
0.283
0.255
0.229
0.205
0.184
0.166
0.149
0.135
0.123
0.113
0.104
0.096
0.090
0.084
0.080
0.076
0.073
0.070
0.068
0.066
0.064
0.062
0.061
0.060
0.059
0.058
0.056
0.055
0.054
0.053
0.052
0.051
0.050
0.049
0.048
0.047
0.046
0.044
0.043
0.042
0.041
0.040
0.039
0.038
0.037
0.036
0.035
0.034
0.033
0.033
0.032
0.032
0.031
0.031
0.030
0.030
0.030
0.029
0.029
0.028
0.028
0.028
0.027
0.027
0.026
0.025
0.025
0.024
0.023
0.022
0.021
0.020
0.019
0.018
0.017
0.016
0.015
0.014
0.012
0.011
0.010
0.009
0.008
0.008
0.007
0.006
0.005
0.005
0.004
0.003
0.003
0.003
0.002
0.002
0.002
0.001
0.001
0.001
0.001
0.001
0.001
0.000
0.000
0.000
0.000
0.000
0.000
0.000
0.000
0.000
0.000
0.000
0.000
0.000
0.000
0.000
0.000
0.000
0.000
0.000
0.000
-0.000
-0.000
-0.000
-0.000
-0.000
-0.000
-0.000
-0.000
0.000
0.000
0.000
0.000
0.000
0.000
0.000
0.000
-0.000
-0.000
-0.000
-0.000
-0.000
-0.000
-0.000
-0.000
-0.000
0.000
0.000
0.000
0.000
0.000
0
0
0
0
0
0
0
0
0
0
0
0
0
0
0
0
0
0
0
0
0
0
0
0
0
0
0
0
0
0
0
0
0
0
0
0
0
0
0
0
0
0
0
0
0
0
0
0
0
0
0
0
0
0
0
0
0
0
0
0
0
0
0
0
0
0
0
0
0
0
0
0
0
0
0
0
0
0
0
0
0
0
0
0
0
0
0
0
0
0
0
0
0
0
0
0
0
0
0
0
0
0
0
0
0
0
0
0
0
0
0
0
0
0
0
0
0
0
0
0
0
0
0
0
0
0
0
0
0
0
0
0
0
0
0
0
0
0
0
0
0
0
0
0
0
0
0
0
0
0
0
0
0
0
0
0
0
0
0
0
0
0
0
0
0
0
0
0
0
0
0
0
0
0
0
0
0
0
0
0
0
0
0
0
0
0
0
0
0
0
0
0
0
0
0
0
0
0
0
0
0
0
0
0
0
0
0
0
0
0
0
0
0
0
0
0
0
0
0
0
0
0
0
0
0
0
0
0
0
0
0
0
0
0
0
0
0
0
0
0
0
0
0
0
0
0
0
0
0
0
0
0
0
0
0
0
0
0
0
0
0
0
0
0
0
0
0
0
0
0
0
0
0
0
0
0
0
0
0
0
0
0
0
0
0
0
0
0
0
0
0
0
0
0
0
0
0
0
0
0
0
0
0
0
0
0
0
0
0
0
0
0
0
0
0
0
0
0
0
0
0
0
0
0
0
0
0
0
0
0
0
0
0
0
0
0
0
0
0
0
0
0
0
0
0
0
0
0
0
0
0
0
0
0
0
0
0
0
0
0
0
0
0
0
0
0
0
0
0
0
0
0
0
0
0
0
0
0
0
0
0
0
0
0
0
0
0
0
0
0
0
0
0
0
0
0
0
0
0
0
0
0
0
0
0
0
0
0
0
0
0
0
0
0
0
0
0
0
0
0
0
0
0
0
0
0
0
0
0
0
0
0
0
0
0
0
0
0
0
0
0
0
0
0
0
0
0
0
0
0
0
0
0
0
0
0
0
0
0
0
0
0
0
0
0
0
0
0
0
0
0
0
0
0
0
0
0
0
0
0
0
0
0
0
0
0
0
0
0
0
0
0
0
0
0
0
0
0
0
0
0
0
0
$MCA_CAL:
3
-1.4656616 2.9313233 0.00000000000000
$ENER_FIT:
-1.4656616 2.9313233 0.00000000000000
$MCA_CAL_DATA:
3
298 872
597 1749
896 2625
$CAMBIO:
Parent file specification: C:\GADRAS-DRF\Temp\152EU_50.0_50.0_iron_6.28_7.0.pcf
Successful read of spectrum: Yes
Error message: None
Warning: None
Information: None
Neutrons: 0
Number of spectral records in the parent file: 1
Record number of this spectrum in the parent file: 1
Date and time of acquisition read successfully from the original file: Yes
Live time read successfully from the original file: Yes
True time read successfully from the original file: Yes
GADRAS Tag character is:  
Version: 130122
Parent file type: Sandia GADRAS PCF
