$SPEC_ID:
152EU,1uC{26,3.50}
$MEAS_TIM:
3600.00 3600.00
$DATE_MEA:
3/9/2018 5:22:25 PM
$DATA:
0 1193
1613.672
1596.335
1472.670
1732.702
1493.234
1287.492
1114.167
975.960
869.638
777.753
726.215
682.382
641.606
614.382
600.482
593.598
591.512
597.812
616.222
641.438
685.735
740.389
786.573
809.391
840.061
889.947
948.697
984.600
986.331
993.999
1031.711
1084.720
1131.900
1159.342
1190.217
1232.495
1304.369
1456.163
1748.302
2225.052
2714.588
2881.829
2542.508
1912.280
1324.053
968.791
829.954
802.668
821.403
852.906
882.714
903.279
908.439
896.442
874.603
850.931
830.901
816.694
807.699
802.981
800.030
795.954
790.221
783.100
775.064
766.630
759.715
755.403
751.950
748.408
744.500
740.025
734.300
726.621
717.936
711.612
713.974
731.010
766.975
820.568
885.156
947.084
988.600
991.068
951.613
877.107
784.683
692.307
613.940
556.799
518.572
495.122
481.293
473.498
469.591
468.075
467.868
468.253
468.666
468.388
466.585
463.076
458.176
452.805
448.439
446.993
450.883
464.180
493.028
543.139
619.011
722.967
850.710
994.825
1136.547
1253.503
1326.856
1340.589
1290.206
1186.811
1044.901
885.330
729.400
590.456
477.741
394.398
335.620
296.118
270.862
255.021
245.536
240.870
239.738
241.584
245.944
252.105
259.199
266.279
272.250
276.016
277.285
276.479
274.144
271.163
268.547
267.015
266.830
268.156
270.289
271.958
271.968
269.747
264.883
257.289
247.634
236.666
225.237
214.273
204.686
196.857
190.815
186.525
183.716
181.994
180.967
180.327
179.775
179.071
178.143
176.982
175.578
173.995
172.300
170.558
168.855
167.267
165.851
164.597
163.478
162.492
161.693
161.165
160.983
161.068
161.302
161.574
161.849
162.138
162.446
162.733
162.883
162.794
162.390
161.662
160.589
159.176
157.478
155.570
153.512
151.350
149.148
146.943
144.777
142.673
140.669
138.785
137.053
135.514
134.191
133.076
132.127
131.316
130.603
130.010
129.563
129.272
129.139
129.150
129.298
129.568
129.971
130.512
131.209
132.046
132.988
134.023
135.108
136.179
137.162
137.990
138.597
138.953
139.025
138.795
138.255
137.435
136.375
135.088
133.620
132.000
130.275
128.486
126.740
125.163
123.867
122.954
122.481
122.511
123.089
124.319
126.375
129.440
133.692
139.210
145.954
153.861
162.873
172.761
183.120
193.512
203.514
212.649
220.413
226.255
229.669
230.421
228.601
224.338
217.778
209.176
199.028
187.845
176.151
164.403
152.971
142.205
132.458
124.014
116.909
111.126
106.635
103.402
101.303
100.182
99.871
100.210
101.050
102.264
103.717
105.268
106.792
108.127
109.125
109.627
109.511
108.759
107.408
105.498
103.060
100.179
96.973
93.593
90.144
86.772
83.587
80.716
78.267
76.369
75.098
74.499
74.633
75.540
77.268
79.802
83.144
87.272
92.182
97.788
103.963
110.552
117.423
124.403
131.247
137.671
143.365
148.058
151.499
153.610
154.297
153.511
151.168
147.347
142.244
136.094
129.127
121.550
113.610
105.526
97.540
89.870
82.740
76.229
70.386
65.240
60.843
57.218
54.348
52.212
50.776
50.019
49.915
50.476
51.702
53.609
56.198
59.483
63.448
68.106
73.437
79.437
86.086
93.270
100.897
108.835
117.005
125.246
133.392
141.216
148.540
155.135
160.835
165.532
169.116
171.525
172.641
172.421
170.868
168.082
164.131
159.100
153.049
146.142
138.527
130.406
121.930
113.292
104.641
96.083
87.749
79.742
72.192
65.181
58.748
52.910
47.687
43.093
39.148
35.802
32.985
30.624
28.648
26.982
25.570
24.389
23.407
22.604
21.949
21.423
20.992
20.630
20.306
19.992
19.660
19.292
18.894
18.461
18.001
17.513
17.001
16.473
15.941
15.416
14.909
14.430
13.989
13.593
13.245
12.952
12.719
12.551
12.444
12.393
12.387
12.422
12.487
12.575
12.674
12.771
12.855
12.912
12.930
12.900
12.825
12.711
12.564
12.386
12.186
11.975
11.776
11.616
11.521
11.515
11.625
11.880
12.313
12.961
13.856
15.033
16.526
18.357
20.532
23.060
25.951
29.210
32.845
36.827
41.097
45.589
50.248
55.005
59.806
64.554
69.161
73.504
77.478
80.986
83.909
86.193
87.796
88.719
88.914
88.378
87.073
85.031
82.321
79.041
75.277
71.108
66.633
61.929
57.088
52.184
47.307
42.537
37.959
33.643
29.619
25.891
22.472
19.366
16.584
14.134
12.001
10.161
8.585
7.247
6.118
5.172
4.385
3.738
3.213
2.792
2.458
2.192
1.978
1.805
1.669
1.560
1.473
1.401
1.338
1.278
1.221
1.165
1.111
1.057
1.003
0.948
0.891
0.834
0.777
0.720
0.664
0.609
0.555
0.503
0.454
0.407
0.364
0.324
0.288
0.255
0.227
0.202
0.180
0.162
0.145
0.132
0.120
0.111
0.103
0.096
0.091
0.086
0.083
0.080
0.077
0.075
0.073
0.072
0.070
0.069
0.068
0.067
0.066
0.065
0.064
0.063
0.062
0.061
0.059
0.058
0.057
0.056
0.054
0.053
0.052
0.050
0.049
0.047
0.046
0.044
0.043
0.042
0.041
0.039
0.038
0.037
0.037
0.036
0.035
0.035
0.034
0.034
0.034
0.034
0.033
0.033
0.033
0.033
0.032
0.032
0.032
0.031
0.031
0.030
0.029
0.028
0.027
0.026
0.025
0.023
0.022
0.021
0.019
0.018
0.016
0.015
0.014
0.012
0.011
0.010
0.009
0.008
0.007
0.006
0.005
0.004
0.004
0.003
0.003
0.002
0.002
0.002
0.001
0.001
0.001
0.001
0.001
0.000
0.000
0.000
0.000
0.000
0.000
0.000
0.000
0.000
0.000
0.000
0.000
0.000
0.000
0.000
0.000
0.000
0.000
0.000
0.000
0.000
0.000
0.000
-0.000
-0.000
-0.000
-0.000
-0.000
-0.000
-0.000
0.000
0.000
0.000
0.000
0.000
0.000
0.000
0.000
-0.000
-0.000
-0.000
-0.000
-0.000
-0.000
-0.000
-0.000
0.000
0.000
0.000
0.000
0
0
0
0
0
0
0
0
0
0
0
0
0
0
0
0
0
0
0
0
0
0
0
0
0
0
0
0
0
0
0
0
0
0
0
0
0
0
0
0
0
0
0
0
0
0
0
0
0
0
0
0
0
0
0
0
0
0
0
0
0
0
0
0
0
0
0
0
0
0
0
0
0
0
0
0
0
0
0
0
0
0
0
0
0
0
0
0
0
0
0
0
0
0
0
0
0
0
0
0
0
0
0
0
0
0
0
0
0
0
0
0
0
0
0
0
0
0
0
0
0
0
0
0
0
0
0
0
0
0
0
0
0
0
0
0
0
0
0
0
0
0
0
0
0
0
0
0
0
0
0
0
0
0
0
0
0
0
0
0
0
0
0
0
0
0
0
0
0
0
0
0
0
0
0
0
0
0
0
0
0
0
0
0
0
0
0
0
0
0
0
0
0
0
0
0
0
0
0
0
0
0
0
0
0
0
0
0
0
0
0
0
0
0
0
0
0
0
0
0
0
0
0
0
0
0
0
0
0
0
0
0
0
0
0
0
0
0
0
0
0
0
0
0
0
0
0
0
0
0
0
0
0
0
0
0
0
0
0
0
0
0
0
0
0
0
0
0
0
0
0
0
0
0
0
0
0
0
0
0
0
0
0
0
0
0
0
0
0
0
0
0
0
0
0
0
0
0
0
0
0
0
0
0
0
0
0
0
0
0
0
0
0
0
0
0
0
0
0
0
0
0
0
0
0
0
0
0
0
0
0
0
0
0
0
0
0
0
0
0
0
0
0
0
0
0
0
0
0
0
0
0
0
0
0
0
0
0
0
0
0
0
0
0
0
0
0
0
0
0
0
0
0
0
0
0
0
0
0
0
0
0
0
0
0
0
0
0
0
0
0
0
0
0
0
0
0
0
0
0
0
0
0
0
0
0
0
0
0
0
0
0
0
0
0
0
0
0
0
0
0
0
0
0
0
0
0
0
0
0
0
0
0
0
0
0
0
0
0
0
0
0
0
0
0
0
0
0
0
0
0
0
0
0
0
0
0
0
0
0
0
0
0
0
0
0
0
0
0
0
0
0
0
0
0
0
0
0
0
0
0
0
0
0
0
0
0
0
0
0
0
0
0
0
0
0
0
0
0
0
0
0
0
0
0
$MCA_CAL:
3
-1.4656616 2.9313233 0.00000000000000
$ENER_FIT:
-1.4656616 2.9313233 0.00000000000000
$MCA_CAL_DATA:
3
298 872
597 1749
896 2625
$CAMBIO:
Parent file specification: C:\GADRAS-DRF\Temp\152EU_50.0_50.0_iron_3.50_6.5.pcf
Successful read of spectrum: Yes
Error message: None
Warning: None
Information: None
Neutrons: 0
Number of spectral records in the parent file: 1
Record number of this spectrum in the parent file: 1
Date and time of acquisition read successfully from the original file: Yes
Live time read successfully from the original file: Yes
True time read successfully from the original file: Yes
GADRAS Tag character is:  
Version: 130122
Parent file type: Sandia GADRAS PCF
