$SPEC_ID:
152EU,1uC{13,1.82}
$MEAS_TIM:
3600.00 3600.00
$DATE_MEA:
3/9/2018 5:22:25 PM
$DATA:
0 1193
1390.210
1442.432
1796.881
2859.416
2266.429
1445.139
1118.721
810.060
810.328
873.935
1281.613
2896.683
8303.889
12835.318
8422.215
4385.475
2084.913
785.477
512.438
520.353
560.212
608.316
653.132
690.452
736.325
799.462
863.118
909.538
952.759
1019.188
1103.972
1189.342
1240.110
1257.942
1272.272
1305.709
1399.440
1651.634
2192.904
3074.275
3976.794
4302.703
3723.848
2612.427
1565.753
920.699
652.268
579.409
576.398
589.169
596.417
595.519
589.002
579.632
572.384
569.587
570.795
574.822
581.401
589.904
598.624
605.424
609.153
609.771
607.552
602.507
596.672
591.769
586.976
581.555
575.286
568.606
560.972
551.810
543.960
542.126
552.569
582.050
635.956
713.332
805.748
894.509
957.569
973.122
936.782
855.636
750.935
645.219
555.801
491.850
451.084
428.610
417.834
414.050
414.333
416.800
420.276
423.983
427.318
429.518
429.715
427.726
423.896
419.321
415.774
415.731
422.419
440.692
477.428
539.171
631.448
757.186
911.319
1085.056
1256.320
1398.786
1490.178
1511.448
1456.955
1339.216
1174.964
989.189
807.492
645.615
514.220
416.983
348.467
302.640
273.569
255.501
244.820
239.730
238.742
241.214
246.617
254.120
262.698
271.251
278.536
283.315
285.234
284.729
282.389
279.268
276.590
275.203
275.377
277.256
280.037
282.292
282.673
280.499
275.258
266.832
256.000
243.641
230.739
218.356
207.539
198.728
191.964
187.216
184.171
182.374
181.373
180.816
180.363
179.739
178.861
177.713
176.283
174.644
172.874
171.052
169.273
167.624
166.170
164.902
163.786
162.821
162.069
161.622
161.561
161.801
162.211
162.668
163.132
163.613
164.117
164.596
164.923
164.985
164.694
164.036
162.983
161.537
159.758
157.734
155.532
153.207
150.831
148.447
146.103
143.829
141.665
139.637
137.779
136.139
134.739
133.573
132.595
131.773
131.062
130.489
130.079
129.845
129.790
129.895
130.155
130.554
131.101
131.805
132.684
133.721
134.877
136.141
137.463
138.772
139.981
141.013
141.792
142.284
142.456
142.285
141.765
140.929
139.821
138.458
136.890
135.153
133.297
131.373
129.496
127.808
126.432
125.484
125.031
125.145
125.882
127.358
129.763
133.299
138.160
144.432
152.069
161.001
171.162
182.298
193.964
205.678
216.973
227.320
236.148
242.837
246.817
247.821
245.948
241.341
234.160
224.690
213.489
201.128
188.197
175.205
162.563
150.657
139.875
130.532
122.671
116.276
111.317
107.760
105.468
104.265
103.963
104.384
105.361
106.753
108.409
110.176
111.913
113.443
114.600
115.213
115.142
114.371
112.935
110.879
108.234
105.094
101.592
97.892
94.117
90.425
86.938
83.798
81.122
79.052
77.671
77.033
77.203
78.227
80.157
82.981
86.700
91.293
96.757
102.997
109.870
117.201
124.841
132.599
140.205
147.347
153.686
158.924
162.786
165.185
166.015
165.219
162.704
158.555
152.988
146.262
138.633
130.327
121.617
112.744
103.976
95.551
87.718
80.563
74.141
68.488
63.658
59.681
56.536
54.198
52.631
51.809
51.705
52.331
53.687
55.793
58.648
62.270
66.640
71.774
77.650
84.264
91.595
99.517
107.927
116.681
125.690
134.777
143.759
152.389
160.471
167.756
174.059
179.263
183.246
185.941
187.217
187.026
185.374
182.369
178.088
172.624
166.045
158.528
150.236
141.386
132.145
122.721
113.278
103.933
94.831
86.084
77.835
70.177
63.152
56.778
51.076
46.062
41.756
38.106
35.032
32.459
30.305
28.492
26.956
25.672
24.608
23.738
23.030
22.463
21.999
21.611
21.264
20.928
20.574
20.179
19.752
19.288
18.793
18.267
17.715
17.144
16.569
16.002
15.454
14.936
14.460
14.033
13.658
13.343
13.093
12.914
12.802
12.751
12.749
12.791
12.866
12.967
13.080
13.190
13.287
13.353
13.378
13.350
13.274
13.155
12.999
12.810
12.597
12.371
12.158
11.987
11.886
11.883
12.003
12.282
12.753
13.458
14.431
15.712
17.337
19.328
21.695
24.445
27.591
31.138
35.093
39.426
44.072
48.959
54.027
59.202
64.423
69.587
74.598
79.323
83.648
87.468
90.655
93.150
94.906
95.926
96.158
95.595
94.199
92.004
89.084
85.544
81.479
76.975
72.138
67.050
61.813
56.507
51.229
46.066
41.110
36.436
32.078
28.039
24.334
20.969
17.955
15.301
12.991
10.998
9.292
7.843
6.621
5.597
4.744
4.043
3.474
3.018
2.655
2.367
2.135
1.948
1.800
1.683
1.589
1.512
1.443
1.379
1.317
1.257
1.199
1.141
1.083
1.023
0.962
0.900
0.839
0.777
0.717
0.657
0.599
0.543
0.490
0.439
0.392
0.349
0.310
0.275
0.245
0.218
0.194
0.174
0.156
0.142
0.129
0.119
0.110
0.103
0.097
0.093
0.089
0.085
0.083
0.080
0.079
0.077
0.076
0.074
0.073
0.072
0.071
0.070
0.069
0.067
0.066
0.065
0.064
0.063
0.061
0.060
0.058
0.057
0.055
0.054
0.052
0.051
0.049
0.048
0.046
0.045
0.044
0.042
0.041
0.040
0.039
0.039
0.038
0.037
0.037
0.037
0.036
0.036
0.036
0.036
0.035
0.035
0.035
0.035
0.034
0.033
0.033
0.032
0.031
0.030
0.029
0.028
0.026
0.025
0.024
0.022
0.021
0.019
0.018
0.016
0.015
0.013
0.012
0.011
0.009
0.008
0.007
0.006
0.005
0.005
0.004
0.003
0.003
0.002
0.002
0.002
0.001
0.001
0.001
0.001
0.001
0.000
0.000
0.000
0.000
0.000
0.000
0.000
0.000
0.000
0.000
0.000
0.000
0.000
0.000
0.000
0.000
0.000
0.000
0.000
0.000
0.000
0.000
0.000
-0.000
-0.000
-0.000
-0.000
-0.000
-0.000
-0.000
0.000
0.000
0.000
0.000
0.000
0.000
0.000
0.000
-0.000
-0.000
-0.000
-0.000
-0.000
-0.000
-0.000
-0.000
0.000
0.000
0.000
0.000
0
0
0
0
0
0
0
0
0
0
0
0
0
0
0
0
0
0
0
0
0
0
0
0
0
0
0
0
0
0
0
0
0
0
0
0
0
0
0
0
0
0
0
0
0
0
0
0
0
0
0
0
0
0
0
0
0
0
0
0
0
0
0
0
0
0
0
0
0
0
0
0
0
0
0
0
0
0
0
0
0
0
0
0
0
0
0
0
0
0
0
0
0
0
0
0
0
0
0
0
0
0
0
0
0
0
0
0
0
0
0
0
0
0
0
0
0
0
0
0
0
0
0
0
0
0
0
0
0
0
0
0
0
0
0
0
0
0
0
0
0
0
0
0
0
0
0
0
0
0
0
0
0
0
0
0
0
0
0
0
0
0
0
0
0
0
0
0
0
0
0
0
0
0
0
0
0
0
0
0
0
0
0
0
0
0
0
0
0
0
0
0
0
0
0
0
0
0
0
0
0
0
0
0
0
0
0
0
0
0
0
0
0
0
0
0
0
0
0
0
0
0
0
0
0
0
0
0
0
0
0
0
0
0
0
0
0
0
0
0
0
0
0
0
0
0
0
0
0
0
0
0
0
0
0
0
0
0
0
0
0
0
0
0
0
0
0
0
0
0
0
0
0
0
0
0
0
0
0
0
0
0
0
0
0
0
0
0
0
0
0
0
0
0
0
0
0
0
0
0
0
0
0
0
0
0
0
0
0
0
0
0
0
0
0
0
0
0
0
0
0
0
0
0
0
0
0
0
0
0
0
0
0
0
0
0
0
0
0
0
0
0
0
0
0
0
0
0
0
0
0
0
0
0
0
0
0
0
0
0
0
0
0
0
0
0
0
0
0
0
0
0
0
0
0
0
0
0
0
0
0
0
0
0
0
0
0
0
0
0
0
0
0
0
0
0
0
0
0
0
0
0
0
0
0
0
0
0
0
0
0
0
0
0
0
0
0
0
0
0
0
0
0
0
0
0
0
0
0
0
0
0
0
0
0
0
0
0
0
0
0
0
0
0
0
0
0
0
0
0
0
0
0
0
0
0
0
0
0
0
0
0
0
0
0
0
0
0
0
0
0
0
0
0
0
0
0
0
0
0
0
0
0
0
0
0
0
0
0
0
0
0
0
0
0
0
0
0
0
0
0
0
0
0
0
$MCA_CAL:
3
-1.4656616 2.9313233 0.00000000000000
$ENER_FIT:
-1.4656616 2.9313233 0.00000000000000
$MCA_CAL_DATA:
3
298 872
597 1749
896 2625
$CAMBIO:
Parent file specification: C:\GADRAS-DRF\Temp\152EU_150.0_50.0_alum_1.82_6.5.pcf
Successful read of spectrum: Yes
Error message: None
Warning: None
Information: None
Neutrons: 0
Number of spectral records in the parent file: 1
Record number of this spectrum in the parent file: 1
Date and time of acquisition read successfully from the original file: Yes
Live time read successfully from the original file: Yes
True time read successfully from the original file: Yes
GADRAS Tag character is:  
Version: 130122
Parent file type: Sandia GADRAS PCF
