$SPEC_ID:
152EU,1uC{13,1.82}
$MEAS_TIM:
3600.00 3600.00
$DATE_MEA:
3/9/2018 5:22:25 PM
$DATA:
0 1193
1938.169
2114.525
2439.230
3421.199
2896.895
1971.738
1570.337
1205.418
1168.857
1242.144
1919.726
4150.486
8754.872
11633.974
8778.454
4911.210
2522.414
1268.176
858.345
833.292
893.156
968.097
1036.064
1098.720
1174.231
1265.311
1347.730
1397.624
1419.844
1424.997
1439.596
1475.484
1513.710
1546.677
1592.169
1680.357
1860.452
2191.811
2696.493
3298.650
3793.596
3905.058
3536.266
2824.802
2044.099
1438.347
1070.407
901.071
854.366
860.221
877.472
893.593
899.127
890.784
872.843
851.461
831.956
816.402
805.348
798.186
792.805
787.159
780.831
773.721
765.853
757.947
751.198
745.709
740.929
736.482
732.074
727.373
722.423
718.867
719.065
726.433
744.286
773.980
815.578
864.865
915.702
958.322
981.688
979.512
949.100
893.423
822.000
744.416
669.670
605.550
554.500
517.149
492.020
476.098
466.663
461.661
459.186
458.022
457.181
456.110
454.731
453.180
452.473
453.889
459.400
471.865
494.248
529.742
581.592
651.771
738.910
841.048
952.341
1063.138
1163.406
1242.505
1289.350
1295.382
1261.960
1192.895
1094.165
976.364
850.861
727.355
612.997
514.544
435.239
373.680
328.108
296.324
275.543
262.992
256.449
254.457
255.585
258.641
262.803
267.257
271.365
274.807
277.312
278.709
279.237
279.185
278.843
278.321
277.675
276.957
275.973
274.376
271.778
267.955
262.894
256.602
249.154
240.874
232.205
223.564
215.320
207.741
201.110
195.625
191.214
187.723
184.990
182.859
181.153
179.711
178.369
177.059
175.735
174.363
172.927
171.465
170.040
168.703
167.479
166.373
165.383
164.523
163.808
163.274
162.968
162.903
163.018
163.221
163.419
163.534
163.545
163.457
163.259
162.940
162.455
161.764
160.810
159.566
158.071
156.390
154.572
152.657
150.695
148.696
146.688
144.695
142.761
140.918
139.206
137.670
136.308
135.113
134.069
133.178
132.425
131.829
131.413
131.181
131.140
131.269
131.551
131.955
132.462
133.056
133.736
134.490
135.298
136.153
136.993
137.771
138.433
138.942
139.278
139.444
139.436
139.263
138.917
138.402
137.734
136.898
135.916
134.844
133.779
132.805
132.011
131.496
131.330
131.599
132.377
133.755
135.785
138.507
141.951
146.151
151.136
156.851
163.175
169.964
177.088
184.401
191.696
198.682
205.083
210.617
215.031
218.152
219.913
220.248
219.066
216.306
212.091
206.618
200.102
192.753
184.793
176.443
167.947
159.550
151.493
144.014
137.248
131.236
126.000
121.572
117.979
115.208
113.149
111.697
110.738
110.169
109.879
109.761
109.731
109.681
109.516
109.142
108.529
107.668
106.556
105.197
103.582
101.743
99.745
97.692
95.641
93.690
91.910
90.386
89.180
88.379
88.052
88.267
89.077
90.462
92.414
94.902
97.925
101.451
105.413
109.689
114.186
118.785
123.390
127.872
132.105
135.960
139.279
141.944
143.804
144.788
144.883
144.128
142.525
140.107
136.875
132.909
128.342
123.282
117.877
112.241
106.514
100.796
95.210
89.853
84.842
80.269
76.253
72.844
70.060
67.932
66.475
65.716
65.668
66.337
67.691
69.717
72.382
75.675
79.558
84.007
88.936
94.277
99.974
105.942
112.128
118.421
124.738
130.922
136.876
142.458
147.570
152.078
155.933
159.078
161.435
162.973
163.605
163.310
162.082
160.004
157.131
153.531
149.248
144.368
138.939
133.067
126.812
120.275
113.539
106.673
99.779
92.919
86.189
79.651
73.395
67.496
62.034
57.042
52.510
48.403
44.694
41.359
38.369
35.698
33.319
31.214
29.355
27.725
26.297
25.056
23.971
23.028
22.203
21.476
20.829
20.238
19.688
19.158
18.651
18.162
17.695
17.245
16.815
16.402
16.009
15.636
15.285
14.960
14.660
14.389
14.149
13.941
13.760
13.606
13.476
13.370
13.282
13.212
13.159
13.121
13.101
13.096
13.107
13.134
13.177
13.241
13.337
13.477
13.676
13.944
14.294
14.741
15.296
15.976
16.796
17.773
18.922
20.260
21.801
23.561
25.535
27.717
30.095
32.659
35.404
38.317
41.391
44.598
47.894
51.230
54.569
57.856
61.058
64.115
67.003
69.667
72.067
74.174
75.936
77.325
78.285
78.803
78.850
78.463
77.648
76.440
74.844
72.891
70.600
67.989
65.111
62.003
58.724
55.311
51.818
48.291
44.779
41.313
37.923
34.625
31.447
28.406
25.528
22.833
20.342
18.059
15.975
14.083
12.372
10.836
9.464
8.250
7.183
6.253
5.446
4.752
4.157
3.650
3.218
2.849
2.531
2.258
2.025
1.827
1.660
1.517
1.395
1.288
1.192
1.105
1.026
0.954
0.888
0.827
0.770
0.717
0.666
0.617
0.570
0.525
0.483
0.443
0.406
0.371
0.339
0.309
0.282
0.257
0.235
0.214
0.196
0.179
0.165
0.151
0.140
0.129
0.120
0.112
0.105
0.099
0.094
0.090
0.086
0.082
0.079
0.076
0.074
0.072
0.070
0.068
0.067
0.065
0.064
0.062
0.061
0.059
0.058
0.057
0.055
0.054
0.053
0.051
0.050
0.049
0.048
0.047
0.046
0.045
0.044
0.043
0.042
0.041
0.040
0.039
0.039
0.038
0.037
0.036
0.036
0.035
0.034
0.034
0.033
0.032
0.032
0.031
0.030
0.029
0.028
0.027
0.026
0.025
0.024
0.023
0.022
0.021
0.020
0.019
0.018
0.017
0.016
0.015
0.014
0.013
0.012
0.011
0.010
0.009
0.008
0.007
0.007
0.006
0.005
0.005
0.004
0.004
0.003
0.003
0.002
0.002
0.002
0.002
0.001
0.001
0.001
0.001
0.001
0.001
0.000
0.000
0.000
0.000
0.000
0.000
0.000
0.000
0.000
0.000
0.000
0.000
0.000
0.000
0.000
0.000
0.000
0.000
0.000
0.000
0.000
0.000
0.000
0.000
0.000
0.000
0.000
0.000
0.000
-0.000
-0.000
-0.000
-0.000
-0.000
-0.000
-0.000
-0.000
-0.000
0.000
0.000
0.000
0.000
0.000
0.000
0.000
0.000
0.000
0.000
0.000
0.000
0.000
0.000
0.000
0.000
0
0
0
0
0
0
0
0
0
0
0
0
0
0
0
0
0
0
0
0
0
0
0
0
0
0
0
0
0
0
0
0
0
0
0
0
0
0
0
0
0
0
0
0
0
0
0
0
0
0
0
0
0
0
0
0
0
0
0
0
0
0
0
0
0
0
0
0
0
0
0
0
0
0
0
0
0
0
0
0
0
0
0
0
0
0
0
0
0
0
0
0
0
0
0
0
0
0
0
0
0
0
0
0
0
0
0
0
0
0
0
0
0
0
0
0
0
0
0
0
0
0
0
0
0
0
0
0
0
0
0
0
0
0
0
0
0
0
0
0
0
0
0
0
0
0
0
0
0
0
0
0
0
0
0
0
0
0
0
0
0
0
0
0
0
0
0
0
0
0
0
0
0
0
0
0
0
0
0
0
0
0
0
0
0
0
0
0
0
0
0
0
0
0
0
0
0
0
0
0
0
0
0
0
0
0
0
0
0
0
0
0
0
0
0
0
0
0
0
0
0
0
0
0
0
0
0
0
0
0
0
0
0
0
0
0
0
0
0
0
0
0
0
0
0
0
0
0
0
0
0
0
0
0
0
0
0
0
0
0
0
0
0
0
0
0
0
0
0
0
0
0
0
0
0
0
0
0
0
0
0
0
0
0
0
0
0
0
0
0
0
0
0
0
0
0
0
0
0
0
0
0
0
0
0
0
0
0
0
0
0
0
0
0
0
0
0
0
0
0
0
0
0
0
0
0
0
0
0
0
0
0
0
0
0
0
0
0
0
0
0
0
0
0
0
0
0
0
0
0
0
0
0
0
0
0
0
0
0
0
0
0
0
0
0
0
0
0
0
0
0
0
0
0
0
0
0
0
0
0
0
0
0
0
0
0
0
0
0
0
0
0
0
0
0
0
0
0
0
0
0
0
0
0
0
0
0
0
0
0
0
0
0
0
0
0
0
0
0
0
0
0
0
0
0
0
0
0
0
0
0
0
0
0
0
0
0
0
0
0
0
0
0
0
0
0
0
0
0
0
0
0
0
0
0
0
0
0
0
0
0
0
0
0
0
0
0
0
0
0
0
0
0
0
0
0
0
0
0
0
0
0
0
0
0
0
0
0
0
0
0
0
0
0
$MCA_CAL:
3
-1.4656616 2.9313233 0.00000000000000
$ENER_FIT:
-1.4656616 2.9313233 0.00000000000000
$MCA_CAL_DATA:
3
298 872
597 1749
896 2625
$CAMBIO:
Parent file specification: C:\GADRAS-DRF\Temp\152EU_50.0_50.0_alum_1.82_8.0.pcf
Successful read of spectrum: Yes
Error message: None
Warning: None
Information: None
Neutrons: 0
Number of spectral records in the parent file: 1
Record number of this spectrum in the parent file: 1
Date and time of acquisition read successfully from the original file: Yes
Live time read successfully from the original file: Yes
True time read successfully from the original file: Yes
GADRAS Tag character is:  
Version: 130122
Parent file type: Sandia GADRAS PCF
