$SPEC_ID:
152EU,1uC{13,4.18}
$MEAS_TIM:
3600.00 3600.00
$DATE_MEA:
3/9/2018 5:22:25 PM
$DATA:
0 1193
1205.557
1214.616
1258.726
1751.880
1542.713
1199.751
990.059
795.208
721.923
685.331
837.085
1449.923
2827.592
3784.437
3108.563
2047.846
1271.823
834.185
716.303
753.487
822.135
896.416
961.970
1013.146
1071.668
1137.622
1196.677
1243.262
1289.669
1333.888
1382.906
1439.190
1481.327
1503.077
1526.515
1579.325
1701.167
1930.731
2277.256
2690.716
3029.882
3084.496
2788.161
2248.323
1667.308
1220.313
947.743
817.842
775.478
768.733
768.103
766.883
761.144
750.557
738.748
728.975
723.035
720.097
719.350
720.248
721.453
721.760
721.061
719.303
716.286
712.140
707.261
701.817
695.798
689.252
682.193
674.241
665.321
657.133
652.108
653.623
664.786
686.166
717.148
754.386
793.226
826.075
844.300
843.027
820.218
778.108
723.868
664.824
608.093
559.821
521.715
494.009
475.674
464.764
459.294
457.286
456.868
457.086
457.301
457.174
456.667
455.913
455.735
457.153
461.719
471.632
489.189
516.939
557.500
612.438
680.548
760.145
846.563
932.241
1009.301
1069.304
1103.411
1104.853
1074.968
1017.098
936.155
840.325
738.365
637.911
544.923
465.073
401.009
351.381
314.536
288.615
271.451
260.905
255.226
253.233
253.761
255.836
258.794
261.975
264.859
267.176
268.700
269.289
269.162
268.586
267.822
266.951
266.000
264.992
263.759
262.017
259.448
255.874
251.298
245.742
239.279
232.166
224.747
217.347
210.267
203.737
198.005
193.239
189.374
186.275
183.792
181.797
180.147
178.715
177.368
176.054
174.730
173.369
171.954
170.518
169.112
167.779
166.540
165.403
164.368
163.451
162.661
162.026
161.584
161.339
161.243
161.219
161.188
161.088
160.898
160.624
160.252
159.776
159.158
158.373
157.372
156.138
154.703
153.120
151.429
149.660
147.857
146.028
144.194
142.376
140.611
138.923
137.345
135.916
134.632
133.489
132.475
131.593
130.828
130.199
129.725
129.407
129.253
129.242
129.362
129.585
129.895
130.277
130.731
131.244
131.801
132.395
132.975
133.502
133.931
134.235
134.395
134.414
134.288
134.027
133.623
133.077
132.404
131.590
130.652
129.637
128.631
127.703
126.932
126.400
126.166
126.296
126.853
127.908
129.506
131.683
134.468
137.892
141.984
146.698
151.933
157.563
163.478
169.553
175.612
181.402
186.690
191.230
194.810
197.279
198.588
198.687
197.500
194.981
191.237
186.431
180.746
174.357
167.455
160.224
152.875
145.615
138.652
132.189
126.339
121.138
116.602
112.758
109.628
107.201
105.382
104.082
103.204
102.661
102.358
102.202
102.120
102.020
101.818
101.432
100.839
100.030
99.006
97.770
96.317
94.674
92.897
91.076
89.257
87.526
85.943
84.582
83.496
82.762
82.439
82.588
83.253
84.414
86.064
88.174
90.739
93.730
97.091
100.718
104.533
108.435
112.343
116.148
119.740
123.005
125.807
128.041
129.575
130.348
130.351
129.618
128.154
125.990
123.128
119.637
115.632
111.204
106.480
101.558
96.556
91.562
86.685
82.007
77.634
73.646
70.147
67.180
64.759
62.909
61.640
60.974
60.921
61.485
62.639
64.374
66.662
69.496
72.842
76.681
80.937
85.552
90.474
95.630
100.975
106.410
111.864
117.200
122.334
127.142
131.540
135.410
138.710
141.392
143.386
144.666
145.157
144.840
143.711
141.840
139.277
136.082
132.290
127.980
123.191
118.016
112.509
106.757
100.833
94.799
88.742
82.718
76.810
71.072
65.583
60.408
55.617
51.239
47.264
43.661
40.407
37.480
34.854
32.508
30.415
28.561
26.923
25.486
24.224
23.127
22.167
21.332
20.601
19.956
19.381
18.855
18.364
17.892
17.439
17.002
16.584
16.181
15.796
15.426
15.074
14.739
14.424
14.132
13.862
13.617
13.400
13.210
13.045
12.904
12.783
12.683
12.599
12.532
12.479
12.440
12.416
12.405
12.409
12.427
12.459
12.510
12.589
12.708
12.878
13.111
13.416
13.807
14.295
14.894
15.617
16.479
17.492
18.672
20.032
21.584
23.326
25.250
27.346
29.607
32.027
34.594
37.302
40.127
43.031
45.969
48.909
51.804
54.622
57.314
59.857
62.200
64.310
66.161
67.704
68.916
69.748
70.185
70.204
69.838
69.092
67.998
66.561
64.809
62.760
60.429
57.864
55.097
52.180
49.145
46.040
42.905
39.783
36.702
33.688
30.756
27.931
25.227
22.669
20.275
18.061
16.035
14.185
12.506
10.989
9.626
8.410
7.333
6.387
5.561
4.845
4.229
3.700
3.249
2.865
2.537
2.254
2.012
1.805
1.629
1.480
1.353
1.245
1.149
1.064
0.986
0.916
0.852
0.793
0.739
0.688
0.640
0.595
0.551
0.509
0.469
0.431
0.396
0.362
0.331
0.303
0.276
0.252
0.230
0.210
0.192
0.175
0.161
0.148
0.136
0.125
0.116
0.108
0.101
0.095
0.089
0.085
0.081
0.077
0.074
0.071
0.069
0.067
0.065
0.063
0.062
0.060
0.059
0.057
0.056
0.055
0.053
0.052
0.051
0.050
0.049
0.047
0.046
0.045
0.044
0.043
0.042
0.041
0.040
0.039
0.039
0.038
0.037
0.036
0.035
0.035
0.034
0.033
0.033
0.032
0.032
0.031
0.030
0.030
0.029
0.028
0.028
0.027
0.026
0.025
0.025
0.024
0.023
0.022
0.021
0.020
0.019
0.018
0.017
0.016
0.015
0.014
0.013
0.012
0.011
0.010
0.010
0.009
0.008
0.007
0.007
0.006
0.005
0.005
0.004
0.004
0.003
0.003
0.002
0.002
0.002
0.002
0.001
0.001
0.001
0.001
0.001
0.001
0.001
0.000
0.000
0.000
0.000
0.000
0.000
0.000
0.000
0.000
0.000
0.000
0.000
0.000
0.000
0.000
0.000
0.000
0.000
0.000
0.000
0.000
0.000
0.000
0.000
0.000
0.000
0.000
0.000
0.000
-0.000
-0.000
-0.000
-0.000
-0.000
-0.000
-0.000
-0.000
-0.000
0.000
0.000
0.000
0.000
0.000
0.000
0.000
0.000
0.000
0.000
0.000
0.000
0.000
0.000
0.000
0.000
0
0
0
0
0
0
0
0
0
0
0
0
0
0
0
0
0
0
0
0
0
0
0
0
0
0
0
0
0
0
0
0
0
0
0
0
0
0
0
0
0
0
0
0
0
0
0
0
0
0
0
0
0
0
0
0
0
0
0
0
0
0
0
0
0
0
0
0
0
0
0
0
0
0
0
0
0
0
0
0
0
0
0
0
0
0
0
0
0
0
0
0
0
0
0
0
0
0
0
0
0
0
0
0
0
0
0
0
0
0
0
0
0
0
0
0
0
0
0
0
0
0
0
0
0
0
0
0
0
0
0
0
0
0
0
0
0
0
0
0
0
0
0
0
0
0
0
0
0
0
0
0
0
0
0
0
0
0
0
0
0
0
0
0
0
0
0
0
0
0
0
0
0
0
0
0
0
0
0
0
0
0
0
0
0
0
0
0
0
0
0
0
0
0
0
0
0
0
0
0
0
0
0
0
0
0
0
0
0
0
0
0
0
0
0
0
0
0
0
0
0
0
0
0
0
0
0
0
0
0
0
0
0
0
0
0
0
0
0
0
0
0
0
0
0
0
0
0
0
0
0
0
0
0
0
0
0
0
0
0
0
0
0
0
0
0
0
0
0
0
0
0
0
0
0
0
0
0
0
0
0
0
0
0
0
0
0
0
0
0
0
0
0
0
0
0
0
0
0
0
0
0
0
0
0
0
0
0
0
0
0
0
0
0
0
0
0
0
0
0
0
0
0
0
0
0
0
0
0
0
0
0
0
0
0
0
0
0
0
0
0
0
0
0
0
0
0
0
0
0
0
0
0
0
0
0
0
0
0
0
0
0
0
0
0
0
0
0
0
0
0
0
0
0
0
0
0
0
0
0
0
0
0
0
0
0
0
0
0
0
0
0
0
0
0
0
0
0
0
0
0
0
0
0
0
0
0
0
0
0
0
0
0
0
0
0
0
0
0
0
0
0
0
0
0
0
0
0
0
0
0
0
0
0
0
0
0
0
0
0
0
0
0
0
0
0
0
0
0
0
0
0
0
0
0
0
0
0
0
0
0
0
0
0
0
0
0
0
0
0
0
0
0
0
0
0
0
0
0
0
0
0
0
0
0
0
0
0
0
0
0
0
0
0
$MCA_CAL:
3
-1.4656616 2.9313233 0.00000000000000
$ENER_FIT:
-1.4656616 2.9313233 0.00000000000000
$MCA_CAL_DATA:
3
298 872
597 1749
896 2625
$CAMBIO:
Parent file specification: C:\GADRAS-DRF\Temp\152EU_100.0_50.0_alum_4.18_8.0.pcf
Successful read of spectrum: Yes
Error message: None
Warning: None
Information: None
Neutrons: 0
Number of spectral records in the parent file: 1
Record number of this spectrum in the parent file: 1
Date and time of acquisition read successfully from the original file: Yes
Live time read successfully from the original file: Yes
True time read successfully from the original file: Yes
GADRAS Tag character is:  
Version: 130122
Parent file type: Sandia GADRAS PCF
