$SPEC_ID:
152EU,1uC{26,3.50}
$MEAS_TIM:
3600.00 3600.00
$DATE_MEA:
3/9/2018 5:22:25 PM
$DATA:
0 1193
1257.989
1213.557
1109.945
1282.819
1110.171
963.680
839.126
738.140
658.330
588.826
549.201
514.916
482.683
459.370
444.504
434.550
427.288
425.119
430.638
441.506
467.313
501.190
529.326
544.095
564.607
600.715
645.727
676.763
695.717
735.931
803.388
874.306
927.716
954.280
979.074
1014.383
1082.726
1236.811
1538.117
2027.665
2529.669
2707.638
2375.971
1751.028
1165.445
808.626
666.289
634.373
643.634
661.886
673.234
674.383
666.715
653.409
640.971
633.325
630.605
631.366
634.929
640.733
647.213
652.410
655.551
656.546
655.446
652.185
648.329
645.092
641.471
636.726
630.733
624.034
615.835
605.090
594.404
588.130
591.872
611.276
650.606
708.721
778.738
846.050
892.949
901.593
868.663
800.205
713.254
625.876
552.150
499.414
465.475
446.226
436.436
432.461
432.114
433.809
436.357
439.064
441.479
442.981
442.818
440.829
437.305
433.196
430.044
429.802
434.899
449.402
479.442
530.710
607.679
712.632
841.213
985.966
1128.258
1245.892
1320.062
1334.682
1285.184
1182.601
1041.374
882.364
726.889
588.312
475.897
392.809
334.253
294.951
269.869
254.165
244.783
240.193
239.120
241.015
245.418
251.619
258.749
265.863
271.863
275.658
276.954
276.174
273.864
270.908
268.317
266.809
266.644
267.981
270.119
271.788
271.799
269.578
264.714
257.119
247.463
236.495
225.065
214.099
204.512
196.682
190.639
186.347
183.536
181.814
180.790
180.155
179.610
178.913
177.993
176.839
175.444
173.870
172.182
170.448
168.753
167.172
165.763
164.517
163.405
162.427
161.635
161.113
160.935
161.021
161.256
161.528
161.804
162.095
162.404
162.691
162.843
162.754
162.350
161.624
160.551
159.140
157.442
155.535
153.478
151.315
149.113
146.908
144.741
142.638
140.634
138.750
137.018
135.480
134.157
133.043
132.095
131.285
130.572
129.980
129.534
129.244
129.113
129.125
129.275
129.547
129.951
130.494
131.192
132.031
132.974
134.010
135.096
136.168
137.152
137.981
138.589
138.945
139.018
138.788
138.249
137.429
136.370
135.083
133.614
131.995
130.270
128.482
126.736
125.160
123.864
122.951
122.479
122.509
123.087
124.317
126.374
129.439
133.691
139.209
145.953
153.861
162.873
172.761
183.120
193.512
203.514
212.649
220.413
226.255
229.669
230.421
228.601
224.338
217.778
209.176
199.028
187.845
176.151
164.403
152.971
142.205
132.458
124.014
116.909
111.126
106.635
103.402
101.303
100.182
99.871
100.210
101.050
102.264
103.717
105.268
106.792
108.127
109.125
109.627
109.511
108.759
107.408
105.498
103.060
100.179
96.973
93.593
90.144
86.772
83.587
80.716
78.267
76.369
75.098
74.499
74.633
75.540
77.268
79.802
83.144
87.272
92.182
97.788
103.963
110.552
117.423
124.403
131.247
137.671
143.365
148.058
151.499
153.610
154.297
153.511
151.168
147.347
142.244
136.094
129.127
121.550
113.610
105.526
97.540
89.870
82.740
76.229
70.386
65.240
60.843
57.218
54.348
52.212
50.776
50.019
49.915
50.476
51.702
53.609
56.198
59.483
63.448
68.106
73.437
79.437
86.086
93.270
100.897
108.835
117.005
125.246
133.392
141.216
148.540
155.135
160.835
165.532
169.116
171.525
172.641
172.421
170.868
168.082
164.131
159.100
153.049
146.142
138.527
130.406
121.930
113.292
104.641
96.083
87.749
79.742
72.192
65.181
58.748
52.910
47.687
43.093
39.148
35.802
32.985
30.624
28.648
26.982
25.570
24.389
23.407
22.604
21.949
21.423
20.992
20.630
20.306
19.992
19.660
19.292
18.894
18.461
18.001
17.513
17.001
16.473
15.941
15.416
14.909
14.430
13.989
13.593
13.245
12.952
12.719
12.551
12.444
12.393
12.387
12.422
12.487
12.575
12.674
12.771
12.855
12.912
12.930
12.900
12.825
12.711
12.564
12.386
12.186
11.975
11.776
11.616
11.521
11.515
11.625
11.880
12.313
12.961
13.856
15.033
16.526
18.357
20.532
23.060
25.951
29.210
32.845
36.827
41.097
45.589
50.248
55.005
59.806
64.554
69.161
73.504
77.478
80.986
83.909
86.193
87.796
88.719
88.914
88.378
87.073
85.031
82.321
79.041
75.277
71.108
66.633
61.929
57.088
52.184
47.307
42.537
37.959
33.643
29.619
25.891
22.472
19.366
16.584
14.134
12.001
10.161
8.585
7.247
6.118
5.172
4.385
3.738
3.213
2.792
2.458
2.192
1.978
1.805
1.669
1.560
1.473
1.401
1.338
1.278
1.221
1.165
1.111
1.057
1.003
0.948
0.891
0.834
0.777
0.720
0.664
0.609
0.555
0.503
0.454
0.407
0.364
0.324
0.288
0.255
0.227
0.202
0.180
0.162
0.145
0.132
0.120
0.111
0.103
0.096
0.091
0.086
0.083
0.080
0.077
0.075
0.073
0.072
0.070
0.069
0.068
0.067
0.066
0.065
0.064
0.063
0.062
0.061
0.059
0.058
0.057
0.056
0.054
0.053
0.052
0.050
0.049
0.047
0.046
0.044
0.043
0.042
0.041
0.039
0.038
0.037
0.037
0.036
0.035
0.035
0.034
0.034
0.034
0.034
0.033
0.033
0.033
0.033
0.032
0.032
0.032
0.031
0.031
0.030
0.029
0.028
0.027
0.026
0.025
0.023
0.022
0.021
0.019
0.018
0.016
0.015
0.014
0.012
0.011
0.010
0.009
0.008
0.007
0.006
0.005
0.004
0.004
0.003
0.003
0.002
0.002
0.002
0.001
0.001
0.001
0.001
0.001
0.000
0.000
0.000
0.000
0.000
0.000
0.000
0.000
0.000
0.000
0.000
0.000
0.000
0.000
0.000
0.000
0.000
0.000
0.000
0.000
0.000
0.000
0.000
-0.000
-0.000
-0.000
-0.000
-0.000
-0.000
-0.000
0.000
0.000
0.000
0.000
0.000
0.000
0.000
0.000
-0.000
-0.000
-0.000
-0.000
-0.000
-0.000
-0.000
-0.000
0.000
0.000
0.000
0.000
0
0
0
0
0
0
0
0
0
0
0
0
0
0
0
0
0
0
0
0
0
0
0
0
0
0
0
0
0
0
0
0
0
0
0
0
0
0
0
0
0
0
0
0
0
0
0
0
0
0
0
0
0
0
0
0
0
0
0
0
0
0
0
0
0
0
0
0
0
0
0
0
0
0
0
0
0
0
0
0
0
0
0
0
0
0
0
0
0
0
0
0
0
0
0
0
0
0
0
0
0
0
0
0
0
0
0
0
0
0
0
0
0
0
0
0
0
0
0
0
0
0
0
0
0
0
0
0
0
0
0
0
0
0
0
0
0
0
0
0
0
0
0
0
0
0
0
0
0
0
0
0
0
0
0
0
0
0
0
0
0
0
0
0
0
0
0
0
0
0
0
0
0
0
0
0
0
0
0
0
0
0
0
0
0
0
0
0
0
0
0
0
0
0
0
0
0
0
0
0
0
0
0
0
0
0
0
0
0
0
0
0
0
0
0
0
0
0
0
0
0
0
0
0
0
0
0
0
0
0
0
0
0
0
0
0
0
0
0
0
0
0
0
0
0
0
0
0
0
0
0
0
0
0
0
0
0
0
0
0
0
0
0
0
0
0
0
0
0
0
0
0
0
0
0
0
0
0
0
0
0
0
0
0
0
0
0
0
0
0
0
0
0
0
0
0
0
0
0
0
0
0
0
0
0
0
0
0
0
0
0
0
0
0
0
0
0
0
0
0
0
0
0
0
0
0
0
0
0
0
0
0
0
0
0
0
0
0
0
0
0
0
0
0
0
0
0
0
0
0
0
0
0
0
0
0
0
0
0
0
0
0
0
0
0
0
0
0
0
0
0
0
0
0
0
0
0
0
0
0
0
0
0
0
0
0
0
0
0
0
0
0
0
0
0
0
0
0
0
0
0
0
0
0
0
0
0
0
0
0
0
0
0
0
0
0
0
0
0
0
0
0
0
0
0
0
0
0
0
0
0
0
0
0
0
0
0
0
0
0
0
0
0
0
0
0
0
0
0
0
0
0
0
0
0
0
0
0
0
0
0
0
0
0
0
0
0
0
0
0
0
0
0
0
0
0
0
0
0
0
0
0
0
0
0
0
0
0
0
0
0
0
0
0
0
0
0
0
0
0
0
0
0
0
0
$MCA_CAL:
3
-1.4656616 2.9313233 0.00000000000000
$ENER_FIT:
-1.4656616 2.9313233 0.00000000000000
$MCA_CAL_DATA:
3
298 872
597 1749
896 2625
$CAMBIO:
Parent file specification: C:\GADRAS-DRF\Temp\152EU_100.0_50.0_iron_3.50_6.5.pcf
Successful read of spectrum: Yes
Error message: None
Warning: None
Information: None
Neutrons: 0
Number of spectral records in the parent file: 1
Record number of this spectrum in the parent file: 1
Date and time of acquisition read successfully from the original file: Yes
Live time read successfully from the original file: Yes
True time read successfully from the original file: Yes
GADRAS Tag character is:  
Version: 130122
Parent file type: Sandia GADRAS PCF
