$SPEC_ID:
152EU,1uC{13,1.82}
$MEAS_TIM:
3600.00 3600.00
$DATE_MEA:
3/9/2018 5:22:25 PM
$DATA:
0 1193
1628.350
1754.341
2084.948
3029.875
2547.215
1669.404
1306.262
972.396
956.411
1040.429
1688.554
3849.229
8429.267
11348.984
8553.978
4727.510
2358.179
1107.418
688.480
649.816
695.022
753.279
805.482
857.190
921.294
1001.017
1075.426
1126.685
1165.334
1198.497
1242.859
1301.118
1350.164
1384.061
1424.336
1506.036
1682.984
2016.375
2528.520
3141.961
3649.137
3771.565
3411.378
2706.108
1928.932
1322.828
952.978
780.834
727.983
724.984
731.483
735.630
731.442
718.593
702.368
687.990
678.830
674.525
674.144
676.606
679.943
682.407
683.675
683.577
681.858
678.885
675.493
671.882
667.849
663.277
658.067
651.943
645.028
639.312
637.563
643.547
660.841
690.766
733.261
783.967
836.625
881.617
908.136
909.704
883.137
831.193
763.507
689.716
618.675
558.034
510.248
476.005
453.878
440.895
434.317
431.948
431.755
432.550
433.439
433.929
433.971
433.724
434.223
436.766
443.350
456.865
480.308
516.872
569.795
641.028
729.151
832.147
944.162
1055.576
1156.396
1236.034
1283.463
1290.163
1257.442
1189.031
1090.861
973.531
848.426
725.259
611.193
512.995
433.915
372.550
327.141
295.492
274.819
262.350
255.868
253.922
255.091
258.186
262.383
266.870
271.008
274.476
277.006
278.428
278.980
278.952
278.635
278.136
277.510
276.804
275.827
274.232
271.636
267.814
262.755
256.464
249.017
240.739
232.071
223.431
215.188
207.610
200.980
195.495
191.084
187.595
184.864
182.737
181.037
179.602
178.265
176.962
175.643
174.277
172.846
171.390
169.971
168.639
167.421
166.320
165.335
164.480
163.769
163.239
162.936
162.873
162.989
163.193
163.391
163.506
163.517
163.431
163.233
162.914
162.430
161.740
160.785
159.542
158.048
156.367
154.549
152.635
150.672
148.673
146.664
144.671
142.737
140.894
139.182
137.646
136.285
135.089
134.047
133.156
132.403
131.808
131.392
131.161
131.121
131.250
131.533
131.938
132.446
133.041
133.723
134.477
135.286
136.142
136.983
137.761
138.424
138.933
139.270
139.437
139.429
139.256
138.911
138.396
137.728
136.893
135.911
134.839
133.775
132.801
132.008
131.492
131.327
131.596
132.375
133.752
135.783
138.505
141.950
146.150
151.135
156.849
163.174
169.963
177.087
184.401
191.696
198.681
205.083
210.616
215.031
218.152
219.913
220.248
219.066
216.306
212.091
206.618
200.102
192.753
184.793
176.443
167.947
159.550
151.493
144.014
137.248
131.236
126.000
121.572
117.979
115.208
113.149
111.697
110.738
110.169
109.879
109.761
109.731
109.681
109.516
109.142
108.529
107.668
106.556
105.197
103.582
101.743
99.745
97.692
95.641
93.690
91.910
90.386
89.180
88.379
88.052
88.267
89.077
90.462
92.414
94.902
97.925
101.451
105.413
109.689
114.186
118.785
123.390
127.872
132.105
135.960
139.279
141.944
143.804
144.788
144.883
144.128
142.525
140.107
136.875
132.909
128.342
123.282
117.877
112.241
106.514
100.796
95.210
89.853
84.842
80.269
76.253
72.844
70.060
67.932
66.475
65.716
65.668
66.337
67.691
69.717
72.382
75.675
79.558
84.007
88.936
94.277
99.974
105.942
112.128
118.421
124.738
130.922
136.876
142.458
147.570
152.078
155.933
159.078
161.435
162.973
163.605
163.310
162.082
160.004
157.131
153.531
149.248
144.368
138.939
133.067
126.812
120.275
113.539
106.673
99.779
92.919
86.189
79.651
73.395
67.496
62.034
57.042
52.510
48.403
44.694
41.359
38.369
35.698
33.319
31.214
29.355
27.725
26.297
25.056
23.971
23.028
22.203
21.476
20.829
20.238
19.688
19.158
18.651
18.162
17.695
17.245
16.815
16.402
16.009
15.636
15.285
14.960
14.660
14.389
14.149
13.941
13.760
13.606
13.476
13.370
13.282
13.212
13.159
13.121
13.101
13.096
13.107
13.134
13.177
13.241
13.337
13.477
13.676
13.944
14.294
14.741
15.296
15.976
16.796
17.773
18.922
20.260
21.801
23.561
25.535
27.717
30.095
32.659
35.404
38.317
41.391
44.598
47.894
51.230
54.569
57.856
61.058
64.115
67.003
69.667
72.067
74.174
75.936
77.325
78.285
78.803
78.850
78.463
77.648
76.440
74.844
72.891
70.600
67.989
65.111
62.003
58.724
55.311
51.818
48.291
44.779
41.313
37.923
34.625
31.447
28.406
25.528
22.833
20.342
18.059
15.975
14.083
12.372
10.836
9.464
8.250
7.183
6.253
5.446
4.752
4.157
3.650
3.218
2.849
2.531
2.258
2.025
1.827
1.660
1.517
1.395
1.288
1.192
1.105
1.026
0.954
0.888
0.827
0.770
0.717
0.666
0.617
0.570
0.525
0.483
0.443
0.406
0.371
0.339
0.309
0.282
0.257
0.235
0.214
0.196
0.179
0.165
0.151
0.140
0.129
0.120
0.112
0.105
0.099
0.094
0.090
0.086
0.082
0.079
0.076
0.074
0.072
0.070
0.068
0.067
0.065
0.064
0.062
0.061
0.059
0.058
0.057
0.055
0.054
0.053
0.051
0.050
0.049
0.048
0.047
0.046
0.045
0.044
0.043
0.042
0.041
0.040
0.039
0.039
0.038
0.037
0.036
0.036
0.035
0.034
0.034
0.033
0.032
0.032
0.031
0.030
0.029
0.028
0.027
0.026
0.025
0.024
0.023
0.022
0.021
0.020
0.019
0.018
0.017
0.016
0.015
0.014
0.013
0.012
0.011
0.010
0.009
0.008
0.007
0.007
0.006
0.005
0.005
0.004
0.004
0.003
0.003
0.002
0.002
0.002
0.002
0.001
0.001
0.001
0.001
0.001
0.001
0.000
0.000
0.000
0.000
0.000
0.000
0.000
0.000
0.000
0.000
0.000
0.000
0.000
0.000
0.000
0.000
0.000
0.000
0.000
0.000
0.000
0.000
0.000
0.000
0.000
0.000
0.000
0.000
0.000
-0.000
-0.000
-0.000
-0.000
-0.000
-0.000
-0.000
-0.000
-0.000
0.000
0.000
0.000
0.000
0.000
0.000
0.000
0.000
0.000
0.000
0.000
0.000
0.000
0.000
0.000
0.000
0
0
0
0
0
0
0
0
0
0
0
0
0
0
0
0
0
0
0
0
0
0
0
0
0
0
0
0
0
0
0
0
0
0
0
0
0
0
0
0
0
0
0
0
0
0
0
0
0
0
0
0
0
0
0
0
0
0
0
0
0
0
0
0
0
0
0
0
0
0
0
0
0
0
0
0
0
0
0
0
0
0
0
0
0
0
0
0
0
0
0
0
0
0
0
0
0
0
0
0
0
0
0
0
0
0
0
0
0
0
0
0
0
0
0
0
0
0
0
0
0
0
0
0
0
0
0
0
0
0
0
0
0
0
0
0
0
0
0
0
0
0
0
0
0
0
0
0
0
0
0
0
0
0
0
0
0
0
0
0
0
0
0
0
0
0
0
0
0
0
0
0
0
0
0
0
0
0
0
0
0
0
0
0
0
0
0
0
0
0
0
0
0
0
0
0
0
0
0
0
0
0
0
0
0
0
0
0
0
0
0
0
0
0
0
0
0
0
0
0
0
0
0
0
0
0
0
0
0
0
0
0
0
0
0
0
0
0
0
0
0
0
0
0
0
0
0
0
0
0
0
0
0
0
0
0
0
0
0
0
0
0
0
0
0
0
0
0
0
0
0
0
0
0
0
0
0
0
0
0
0
0
0
0
0
0
0
0
0
0
0
0
0
0
0
0
0
0
0
0
0
0
0
0
0
0
0
0
0
0
0
0
0
0
0
0
0
0
0
0
0
0
0
0
0
0
0
0
0
0
0
0
0
0
0
0
0
0
0
0
0
0
0
0
0
0
0
0
0
0
0
0
0
0
0
0
0
0
0
0
0
0
0
0
0
0
0
0
0
0
0
0
0
0
0
0
0
0
0
0
0
0
0
0
0
0
0
0
0
0
0
0
0
0
0
0
0
0
0
0
0
0
0
0
0
0
0
0
0
0
0
0
0
0
0
0
0
0
0
0
0
0
0
0
0
0
0
0
0
0
0
0
0
0
0
0
0
0
0
0
0
0
0
0
0
0
0
0
0
0
0
0
0
0
0
0
0
0
0
0
0
0
0
0
0
0
0
0
0
0
0
0
0
0
0
0
0
0
0
0
0
0
0
0
0
0
0
0
0
0
0
0
0
0
$MCA_CAL:
3
-1.4656616 2.9313233 0.00000000000000
$ENER_FIT:
-1.4656616 2.9313233 0.00000000000000
$MCA_CAL_DATA:
3
298 872
597 1749
896 2625
$CAMBIO:
Parent file specification: C:\GADRAS-DRF\Temp\152EU_75.0_50.0_alum_1.82_8.0.pcf
Successful read of spectrum: Yes
Error message: None
Warning: None
Information: None
Neutrons: 0
Number of spectral records in the parent file: 1
Record number of this spectrum in the parent file: 1
Date and time of acquisition read successfully from the original file: Yes
Live time read successfully from the original file: Yes
True time read successfully from the original file: Yes
GADRAS Tag character is:  
Version: 130122
Parent file type: Sandia GADRAS PCF
