$SPEC_ID:
152EU,1uC{13,4.18}
$MEAS_TIM:
3600.00 3600.00
$DATE_MEA:
3/9/2018 5:22:25 PM
$DATA:
0 1193
1202.496
1214.148
1265.564
1821.995
1541.536
1204.428
992.608
800.644
724.923
697.233
868.025
1511.217
2803.436
3660.621
3080.014
2064.801
1295.314
865.608
731.047
757.263
822.131
895.293
961.343
1014.738
1073.408
1139.521
1195.563
1243.275
1292.218
1336.993
1383.355
1437.287
1481.447
1504.581
1535.484
1599.828
1738.603
1974.666
2296.017
2659.747
2938.458
2978.403
2700.474
2228.906
1714.317
1279.856
995.188
849.017
789.352
770.930
766.714
764.696
759.543
750.172
739.562
730.379
724.409
721.283
720.079
720.315
721.155
721.256
720.169
718.368
715.661
711.394
706.012
700.588
694.974
688.397
680.879
672.927
665.357
659.232
656.628
660.469
672.585
693.201
721.405
753.927
786.676
813.253
826.966
824.340
803.966
767.281
719.837
667.435
615.641
569.766
532.385
503.691
483.435
470.289
462.702
459.049
457.597
456.901
456.470
456.105
455.821
455.987
457.108
460.608
468.488
482.602
504.361
535.079
575.870
627.571
690.856
763.733
840.643
915.861
982.489
1032.728
1058.994
1058.668
1032.829
982.785
912.903
829.542
739.170
647.803
561.207
484.963
421.614
370.597
331.178
302.251
282.080
268.910
261.091
257.374
256.553
257.486
259.468
261.921
264.294
266.269
267.747
268.614
268.851
268.585
267.991
267.202
266.193
264.865
263.095
260.787
257.814
254.083
249.499
244.118
238.104
231.604
224.807
217.958
211.330
205.180
199.678
194.842
190.702
187.278
184.487
182.205
180.294
178.635
177.143
175.761
174.417
173.071
171.726
170.398
169.117
167.897
166.746
165.671
164.677
163.784
163.004
162.361
161.888
161.583
161.398
161.271
161.139
160.945
160.668
160.308
159.848
159.281
158.587
157.757
156.761
155.582
154.223
152.728
151.123
149.435
147.713
145.968
144.225
142.504
140.836
139.232
137.713
136.307
135.026
133.885
132.881
132.023
131.295
130.702
130.249
129.925
129.732
129.664
129.725
129.893
130.156
130.498
130.913
131.374
131.848
132.326
132.772
133.163
133.478
133.708
133.829
133.827
133.687
133.421
133.033
132.531
131.936
131.250
130.523
129.793
129.112
128.516
128.055
127.809
127.840
128.226
129.036
130.337
132.138
134.454
137.297
140.677
144.587
148.946
153.671
158.660
163.824
169.054
174.195
179.048
183.426
187.135
190.008
191.928
192.872
192.818
191.722
189.555
186.361
182.262
177.404
171.929
165.989
159.719
153.282
146.841
140.559
134.598
129.116
124.202
119.844
116.036
112.767
110.036
107.820
106.066
104.707
103.682
102.922
102.353
101.920
101.546
101.162
100.697
100.087
99.260
98.215
96.998
95.647
94.207
92.711
91.222
89.772
88.430
87.243
86.273
85.564
85.177
85.132
85.443
86.142
87.239
88.764
90.705
93.027
95.661
98.559
101.646
104.880
108.181
111.464
114.618
117.547
120.161
122.341
124.020
125.150
125.724
125.700
125.075
123.813
121.916
119.425
116.427
113.009
109.234
105.198
100.969
96.643
92.296
88.029
83.924
80.076
76.564
73.465
70.807
68.613
66.922
65.754
65.145
65.110
65.647
66.726
68.337
70.449
73.053
76.113
79.614
83.476
87.642
92.063
96.665
101.401
106.189
110.974
115.638
120.111
124.285
128.090
131.416
134.208
136.437
138.062
139.081
139.448
139.160
138.173
136.517
134.237
131.391
128.014
124.180
119.921
115.309
110.385
105.229
99.906
94.467
88.994
83.538
78.174
72.935
67.865
62.997
58.368
54.007
49.959
46.248
42.871
39.810
37.044
34.554
32.316
30.316
28.527
26.938
25.523
24.274
23.165
22.184
21.310
20.526
19.822
19.185
18.611
18.087
17.606
17.158
16.736
16.332
15.948
15.583
15.239
14.915
14.611
14.329
14.066
13.826
13.607
13.409
13.232
13.077
12.942
12.829
12.736
12.665
12.616
12.587
12.580
12.593
12.628
12.685
12.772
12.897
13.068
13.293
13.580
13.937
14.372
14.894
15.515
16.244
17.090
18.066
19.179
20.443
21.864
23.441
25.167
27.035
29.035
31.159
33.404
35.757
38.210
40.735
43.301
45.871
48.421
50.911
53.318
55.599
57.739
59.699
61.454
62.986
64.258
65.257
65.941
66.305
66.314
65.995
65.352
64.415
63.189
61.698
59.960
57.984
55.800
53.429
50.913
48.276
45.556
42.785
39.997
37.218
34.486
31.812
29.214
26.702
24.292
21.998
19.830
17.804
15.932
14.214
12.643
11.214
9.918
8.749
7.700
6.765
5.936
5.206
4.567
4.011
3.530
3.115
2.758
2.450
2.185
1.953
1.751
1.577
1.426
1.296
1.183
1.086
1.000
0.923
0.852
0.788
0.728
0.674
0.625
0.579
0.536
0.496
0.459
0.424
0.390
0.359
0.330
0.302
0.277
0.254
0.233
0.213
0.195
0.179
0.165
0.152
0.140
0.130
0.120
0.112
0.105
0.098
0.093
0.087
0.083
0.079
0.076
0.073
0.070
0.067
0.065
0.063
0.061
0.060
0.058
0.056
0.055
0.054
0.052
0.051
0.050
0.049
0.048
0.047
0.045
0.044
0.043
0.042
0.041
0.041
0.040
0.039
0.038
0.037
0.037
0.036
0.035
0.034
0.034
0.033
0.032
0.032
0.031
0.030
0.029
0.029
0.028
0.027
0.027
0.026
0.025
0.024
0.023
0.022
0.022
0.021
0.020
0.019
0.018
0.017
0.016
0.015
0.014
0.013
0.013
0.012
0.011
0.010
0.009
0.009
0.008
0.007
0.006
0.006
0.005
0.005
0.004
0.004
0.003
0.003
0.003
0.002
0.002
0.002
0.002
0.001
0.001
0.001
0.001
0.001
0.001
0.001
0.000
0.000
0.000
0.000
0.000
0.000
0.000
0.000
0.000
0.000
0.000
0.000
0.000
0.000
0.000
0.000
0.000
0.000
0.000
0.000
0.000
0.000
0.000
0.000
0.000
0.000
0.000
0.000
0.000
0.000
0.000
-0.000
-0.000
-0.000
-0.000
-0.000
-0.000
-0.000
-0.000
-0.000
-0.000
0.000
0.000
0.000
0.000
0.000
0.000
0.000
0.000
0.000
0.000
0.000
-0.000
-0.000
-0.000
-0.000
-0.000
-0.000
-0.000
-0.000
-0.000
-0.000
0.000
0.000
0.000
0.000
0.000
0.000
0
0
0
0
0
0
0
0
0
0
0
0
0
0
0
0
0
0
0
0
0
0
0
0
0
0
0
0
0
0
0
0
0
0
0
0
0
0
0
0
0
0
0
0
0
0
0
0
0
0
0
0
0
0
0
0
0
0
0
0
0
0
0
0
0
0
0
0
0
0
0
0
0
0
0
0
0
0
0
0
0
0
0
0
0
0
0
0
0
0
0
0
0
0
0
0
0
0
0
0
0
0
0
0
0
0
0
0
0
0
0
0
0
0
0
0
0
0
0
0
0
0
0
0
0
0
0
0
0
0
0
0
0
0
0
0
0
0
0
0
0
0
0
0
0
0
0
0
0
0
0
0
0
0
0
0
0
0
0
0
0
0
0
0
0
0
0
0
0
0
0
0
0
0
0
0
0
0
0
0
0
0
0
0
0
0
0
0
0
0
0
0
0
0
0
0
0
0
0
0
0
0
0
0
0
0
0
0
0
0
0
0
0
0
0
0
0
0
0
0
0
0
0
0
0
0
0
0
0
0
0
0
0
0
0
0
0
0
0
0
0
0
0
0
0
0
0
0
0
0
0
0
0
0
0
0
0
0
0
0
0
0
0
0
0
0
0
0
0
0
0
0
0
0
0
0
0
0
0
0
0
0
0
0
0
0
0
0
0
0
0
0
0
0
0
0
0
0
0
0
0
0
0
0
0
0
0
0
0
0
0
0
0
0
0
0
0
0
0
0
0
0
0
0
0
0
0
0
0
0
0
0
0
0
0
0
0
0
0
0
0
0
0
0
0
0
0
0
0
0
0
0
0
0
0
0
0
0
0
0
0
0
0
0
0
0
0
0
0
0
0
0
0
0
0
0
0
0
0
0
0
0
0
0
0
0
0
0
0
0
0
0
0
0
0
0
0
0
0
0
0
0
0
0
0
0
0
0
0
0
0
0
0
0
0
0
0
0
0
0
0
0
0
0
0
0
0
0
0
0
0
0
0
0
0
0
0
0
0
0
0
0
0
0
0
0
0
0
0
0
0
0
0
0
0
0
0
0
0
0
0
0
0
0
0
0
0
0
0
0
0
0
0
0
0
0
0
0
$MCA_CAL:
3
-1.4656616 2.9313233 0.00000000000000
$ENER_FIT:
-1.4656616 2.9313233 0.00000000000000
$MCA_CAL_DATA:
3
298 872
597 1749
896 2625
$CAMBIO:
Parent file specification: C:\GADRAS-DRF\Temp\152EU_100.0_50.0_alum_4.18_8.5.pcf
Successful read of spectrum: Yes
Error message: None
Warning: None
Information: None
Neutrons: 0
Number of spectral records in the parent file: 1
Record number of this spectrum in the parent file: 1
Date and time of acquisition read successfully from the original file: Yes
Live time read successfully from the original file: Yes
True time read successfully from the original file: Yes
GADRAS Tag character is:  
Version: 130122
Parent file type: Sandia GADRAS PCF
