$SPEC_ID:
152EU,1uC{82,0.92}
$MEAS_TIM:
3600.00 3600.00
$DATE_MEA:
3/9/2018 5:22:25 PM
$DATA:
0 1193
1450.974
1352.821
1236.567
1161.829
1021.952
901.761
795.556
708.388
635.428
570.398
532.543
499.209
466.840
444.880
431.236
420.638
411.648
406.845
408.671
415.492
428.020
445.325
458.338
454.584
445.251
438.187
436.388
434.871
432.161
431.550
434.537
439.559
444.948
448.599
452.036
456.864
466.662
486.910
524.334
577.871
630.131
650.261
626.473
574.206
520.964
492.372
488.183
499.746
520.227
543.069
557.588
560.846
553.061
536.745
519.337
505.749
497.799
494.996
496.140
499.916
504.909
509.221
512.026
513.916
514.552
513.861
512.949
512.232
511.351
509.243
505.440
500.533
494.453
487.018
480.305
477.521
482.969
500.486
532.797
578.056
630.014
678.456
711.249
718.791
694.908
646.126
583.420
518.080
460.270
414.646
383.414
364.389
354.215
349.984
349.100
350.168
352.270
354.747
357.037
358.609
358.920
357.888
356.023
354.255
354.481
358.995
371.478
396.078
437.444
500.565
587.998
698.736
829.365
968.230
1101.254
1211.779
1281.038
1296.145
1258.206
1171.156
1047.650
905.060
759.363
623.134
507.859
416.906
348.593
300.544
268.535
248.075
235.875
229.918
228.341
230.096
234.436
240.560
247.547
254.443
260.467
265.032
267.627
268.389
267.925
266.828
265.717
265.191
265.668
266.794
267.999
268.701
268.164
265.673
260.774
253.680
244.722
234.368
223.461
212.870
203.306
195.068
188.420
183.466
179.966
177.619
176.116
175.167
174.466
173.756
172.927
171.934
170.728
169.346
167.851
166.306
164.782
163.334
162.014
160.866
159.900
159.137
158.578
158.249
158.187
158.407
158.855
159.412
159.955
160.400
160.748
161.026
161.235
161.304
161.113
160.555
159.563
158.197
156.528
154.637
152.576
150.387
148.140
145.870
143.620
141.423
139.327
137.357
135.549
133.947
132.569
131.405
130.420
129.594
128.890
128.335
127.958
127.775
127.796
128.000
128.373
128.887
129.535
130.318
131.245
132.314
133.484
134.726
135.977
137.190
138.303
139.259
139.985
140.425
140.567
140.437
140.041
139.394
138.515
137.391
136.038
134.463
132.761
131.051
129.466
128.140
127.173
126.654
126.671
127.319
128.694
130.922
134.123
138.420
143.882
150.471
158.152
166.869
176.523
186.786
197.289
207.639
217.457
226.312
233.777
239.375
242.678
243.472
241.845
237.931
231.876
223.843
214.224
203.469
192.042
180.378
168.862
157.797
147.488
138.237
130.289
123.667
118.319
114.206
111.279
109.442
108.513
108.315
108.668
109.404
110.382
111.470
112.559
113.516
114.226
114.584
114.498
113.858
112.571
110.650
108.211
105.383
102.284
99.060
95.806
92.653
89.704
87.083
84.887
83.222
82.169
81.810
82.242
83.524
85.661
88.621
92.398
96.962
102.276
108.191
114.575
121.270
128.142
135.001
141.616
147.745
153.116
157.501
160.681
162.603
163.200
162.449
160.290
156.739
151.941
146.110
139.454
132.154
124.433
116.473
108.484
100.646
93.170
86.235
79.944
74.328
69.442
65.322
62.007
59.522
57.853
56.994
56.931
57.661
59.167
61.450
64.496
68.307
72.863
78.173
84.167
90.778
97.949
105.595
113.662
122.014
130.513
138.948
147.169
154.978
162.229
168.755
174.444
179.165
182.762
185.135
186.193
185.990
184.529
181.865
178.021
173.049
167.049
160.206
152.650
144.564
136.081
127.364
118.539
109.714
101.027
92.585
84.524
76.911
69.799
63.225
57.232
51.854
47.132
43.033
39.494
36.455
33.853
31.623
29.705
28.066
26.671
25.494
24.500
23.666
22.954
22.346
21.813
21.330
20.875
20.420
19.952
19.465
18.967
18.456
17.940
17.420
16.901
16.390
15.896
15.426
14.987
14.590
14.239
13.936
13.681
13.476
13.318
13.211
13.150
13.130
13.138
13.165
13.202
13.235
13.259
13.265
13.257
13.230
13.185
13.121
13.037
12.943
12.860
12.806
12.800
12.865
13.019
13.287
13.697
14.283
15.075
16.106
17.406
19.005
20.914
23.142
25.694
28.576
31.799
35.364
39.250
43.403
47.770
52.288
56.911
61.574
66.226
70.770
75.134
79.213
82.918
86.171
88.868
90.970
92.441
93.294
93.486
93.022
91.872
90.047
87.585
84.573
81.086
77.192
72.979
68.511
63.874
59.124
54.337
49.580
44.920
40.422
36.158
32.159
28.438
24.994
21.834
18.962
16.381
14.096
12.093
10.350
8.843
7.551
6.451
5.521
4.736
4.082
3.542
3.101
2.744
2.454
2.218
2.020
1.855
1.716
1.599
1.501
1.415
1.338
1.265
1.194
1.127
1.062
0.998
0.936
0.876
0.816
0.757
0.700
0.644
0.590
0.539
0.490
0.445
0.402
0.362
0.326
0.292
0.262
0.235
0.211
0.190
0.172
0.156
0.143
0.131
0.122
0.113
0.106
0.101
0.096
0.092
0.088
0.085
0.083
0.081
0.079
0.077
0.075
0.074
0.072
0.071
0.070
0.068
0.067
0.066
0.064
0.063
0.062
0.060
0.059
0.057
0.056
0.054
0.053
0.052
0.050
0.049
0.047
0.046
0.045
0.044
0.043
0.042
0.041
0.040
0.040
0.039
0.039
0.038
0.038
0.037
0.037
0.036
0.036
0.035
0.035
0.034
0.034
0.033
0.032
0.031
0.030
0.029
0.028
0.027
0.025
0.024
0.023
0.021
0.020
0.018
0.017
0.016
0.014
0.013
0.012
0.011
0.010
0.009
0.008
0.007
0.006
0.005
0.004
0.004
0.003
0.003
0.002
0.002
0.002
0.001
0.001
0.001
0.001
0.001
0.001
0.000
0.000
0.000
0.000
0.000
0.000
0.000
0.000
0.000
0.000
0.000
0.000
0.000
0.000
0.000
0.000
0.000
0.000
0.000
-0.000
-0.000
-0.000
-0.000
-0.000
-0.000
-0.000
-0.000
0.000
0.000
0.000
0.000
0.000
0.000
0.000
0.000
-0.000
-0.000
-0.000
-0.000
-0.000
-0.000
-0.000
-0.000
-0.000
0.000
0.000
0.000
0.000
0.000
0
0
0
0
0
0
0
0
0
0
0
0
0
0
0
0
0
0
0
0
0
0
0
0
0
0
0
0
0
0
0
0
0
0
0
0
0
0
0
0
0
0
0
0
0
0
0
0
0
0
0
0
0
0
0
0
0
0
0
0
0
0
0
0
0
0
0
0
0
0
0
0
0
0
0
0
0
0
0
0
0
0
0
0
0
0
0
0
0
0
0
0
0
0
0
0
0
0
0
0
0
0
0
0
0
0
0
0
0
0
0
0
0
0
0
0
0
0
0
0
0
0
0
0
0
0
0
0
0
0
0
0
0
0
0
0
0
0
0
0
0
0
0
0
0
0
0
0
0
0
0
0
0
0
0
0
0
0
0
0
0
0
0
0
0
0
0
0
0
0
0
0
0
0
0
0
0
0
0
0
0
0
0
0
0
0
0
0
0
0
0
0
0
0
0
0
0
0
0
0
0
0
0
0
0
0
0
0
0
0
0
0
0
0
0
0
0
0
0
0
0
0
0
0
0
0
0
0
0
0
0
0
0
0
0
0
0
0
0
0
0
0
0
0
0
0
0
0
0
0
0
0
0
0
0
0
0
0
0
0
0
0
0
0
0
0
0
0
0
0
0
0
0
0
0
0
0
0
0
0
0
0
0
0
0
0
0
0
0
0
0
0
0
0
0
0
0
0
0
0
0
0
0
0
0
0
0
0
0
0
0
0
0
0
0
0
0
0
0
0
0
0
0
0
0
0
0
0
0
0
0
0
0
0
0
0
0
0
0
0
0
0
0
0
0
0
0
0
0
0
0
0
0
0
0
0
0
0
0
0
0
0
0
0
0
0
0
0
0
0
0
0
0
0
0
0
0
0
0
0
0
0
0
0
0
0
0
0
0
0
0
0
0
0
0
0
0
0
0
0
0
0
0
0
0
0
0
0
0
0
0
0
0
0
0
0
0
0
0
0
0
0
0
0
0
0
0
0
0
0
0
0
0
0
0
0
0
0
0
0
0
0
0
0
0
0
0
0
0
0
0
0
0
0
0
0
0
0
0
0
0
0
0
0
0
0
0
0
0
0
0
0
0
0
0
0
0
0
0
0
0
0
0
0
0
0
0
0
0
0
0
0
0
0
0
0
0
0
0
0
0
0
0
$MCA_CAL:
3
-1.4656616 2.9313233 0.00000000000000
$ENER_FIT:
-1.4656616 2.9313233 0.00000000000000
$MCA_CAL_DATA:
3
298 872
597 1749
896 2625
$CAMBIO:
Parent file specification: C:\GADRAS-DRF\Temp\152EU_75.0_50.0_lead_0.92_7.0.pcf
Successful read of spectrum: Yes
Error message: None
Warning: None
Information: None
Neutrons: 0
Number of spectral records in the parent file: 1
Record number of this spectrum in the parent file: 1
Date and time of acquisition read successfully from the original file: Yes
Live time read successfully from the original file: Yes
True time read successfully from the original file: Yes
GADRAS Tag character is:  
Version: 130122
Parent file type: Sandia GADRAS PCF
