$SPEC_ID:
152EU,1uC{26,1.53}
$MEAS_TIM:
3600.00 3600.00
$DATE_MEA:
3/9/2018 5:22:25 PM
$DATA:
0 1193
1388.527
1340.564
1235.697
1259.361
1090.240
954.092
827.475
719.240
641.091
574.028
537.295
525.456
567.878
627.526
623.858
588.635
499.919
427.502
410.342
416.092
434.063
458.517
482.724
500.833
526.136
564.180
608.275
642.485
677.679
737.362
822.644
907
966.620
996.487
1023.725
1073.799
1193.171
1466.112
1968.635
2691.124
3375.867
3600.798
3187.018
2352.796
1502.313
931.383
650.225
553.357
539.094
547.629
553.356
553.339
548.973
541.340
535.398
533.440
535.414
540.303
547.656
556.652
565.663
572.854
577.191
578.718
577.340
573.515
568.836
564.255
559.910
554.963
549.084
542.964
536.483
529.516
525.292
528.507
544.899
579.179
634.097
706.671
788.286
863.688
914.542
928.079
896.888
829.424
740.156
646.082
562.956
497.606
453.058
426.031
411.607
405.706
404.718
406.458
409.346
412.490
415.313
417.219
417.550
416.204
413.797
411.403
411.145
415.585
428.869
455.675
501.262
571.284
668.550
791.694
936.710
1090.664
1237.973
1360.025
1435.737
1450.684
1406.291
1307.155
1167.393
1006.273
841.637
687.813
557.920
455.668
378.911
324.804
288.651
265.503
251.669
244.800
242.726
244.263
248.596
254.852
262.041
269.134
275.292
279.883
282.359
282.863
282.044
280.535
278.998
278.078
278.223
279.066
280.011
280.447
279.616
276.778
271.466
263.903
254.434
243.544
232.096
220.977
210.917
202.231
195.200
189.935
186.189
183.648
181.992
180.917
180.107
179.294
178.363
177.269
175.962
174.476
172.878
171.230
169.605
168.057
166.640
165.398
164.344
163.499
162.866
162.467
162.337
162.488
162.867
163.356
163.835
164.222
164.514
164.736
164.885
164.891
164.637
164.019
162.971
161.554
159.840
157.911
155.816
153.595
151.316
149.012
146.727
144.495
142.362
140.356
138.511
136.869
135.449
134.242
133.214
132.344
131.599
131.002
130.584
130.358
130.335
130.493
130.818
131.282
131.878
132.605
133.475
134.483
135.590
136.766
137.950
139.096
140.141
141.032
141.699
142.087
142.185
142.016
141.585
140.907
140.000
138.854
137.483
135.895
134.184
132.468
130.873
129.536
128.549
128.000
127.973
128.559
129.852
131.975
135.049
139.195
144.480
150.869
158.327
166.800
176.190
186.176
196.394
206.456
215.990
224.576
231.799
237.194
240.346
241.045
239.382
235.486
229.502
221.588
212.129
201.561
190.338
178.883
167.572
156.704
146.579
137.492
129.685
123.179
117.922
113.874
110.985
109.162
108.225
108.004
108.322
109.017
109.950
110.992
112.035
112.950
113.622
113.952
113.847
113.204
111.929
110.038
107.641
104.867
101.829
98.670
95.482
92.393
89.504
86.933
84.776
83.136
82.092
81.724
82.128
83.360
85.424
88.289
91.945
96.365
101.510
107.237
113.419
119.903
126.560
133.206
139.615
145.551
150.750
154.988
158.050
159.888
160.436
159.673
157.541
154.057
149.362
143.663
137.162
130.037
122.502
114.736
106.944
99.299
92.010
85.249
79.116
73.642
68.878
64.859
61.622
59.192
57.554
56.705
56.630
57.327
58.779
60.989
63.938
67.630
72.043
77.187
82.992
89.395
96.340
103.746
111.561
119.653
127.888
136.059
144.023
151.585
158.604
164.918
170.417
174.977
178.445
180.726
181.729
181.509
180.066
177.453
173.692
168.833
162.975
156.297
148.928
141.046
132.781
124.293
115.704
107.115
98.664
90.451
82.608
75.201
68.280
61.883
56.051
50.817
46.223
42.236
38.793
35.838
33.306
31.138
29.272
27.677
26.319
25.172
24.204
23.390
22.697
22.103
21.583
21.112
20.668
20.224
19.767
19.291
18.804
18.305
17.802
17.294
16.788
16.289
15.808
15.349
14.921
14.533
14.189
13.893
13.643
13.441
13.286
13.179
13.118
13.096
13.102
13.127
13.160
13.190
13.211
13.215
13.204
13.176
13.130
13.065
12.982
12.888
12.805
12.750
12.743
12.804
12.952
13.211
13.608
14.176
14.944
15.945
17.207
18.759
20.612
22.775
25.253
28.050
31.179
34.639
38.410
42.441
46.679
51.064
55.551
60.078
64.594
69.004
73.241
77.200
80.795
83.950
86.565
88.600
90.022
90.842
91.020
90.560
89.434
87.651
85.248
82.312
78.915
75.122
71.019
66.668
62.152
57.528
52.869
48.238
43.704
39.326
35.177
31.287
27.667
24.316
21.243
18.450
15.939
13.717
11.767
10.072
8.606
7.349
6.278
5.373
4.610
3.973
3.448
3.019
2.671
2.390
2.160
1.968
1.807
1.671
1.558
1.462
1.378
1.303
1.232
1.163
1.098
1.034
0.972
0.912
0.853
0.795
0.737
0.682
0.627
0.575
0.525
0.478
0.433
0.391
0.353
0.317
0.285
0.255
0.229
0.206
0.185
0.168
0.152
0.139
0.128
0.119
0.111
0.104
0.098
0.093
0.089
0.086
0.083
0.081
0.079
0.077
0.075
0.073
0.072
0.071
0.069
0.068
0.067
0.066
0.064
0.063
0.062
0.060
0.059
0.057
0.056
0.054
0.053
0.052
0.050
0.049
0.048
0.046
0.045
0.044
0.043
0.042
0.041
0.040
0.040
0.039
0.038
0.038
0.037
0.037
0.036
0.036
0.035
0.035
0.035
0.034
0.033
0.033
0.032
0.031
0.030
0.029
0.028
0.027
0.026
0.025
0.023
0.022
0.021
0.019
0.018
0.017
0.015
0.014
0.013
0.012
0.010
0.009
0.008
0.007
0.007
0.006
0.005
0.004
0.004
0.003
0.003
0.002
0.002
0.002
0.001
0.001
0.001
0.001
0.001
0.001
0.000
0.000
0.000
0.000
0.000
0.000
0.000
0.000
0.000
0.000
0.000
0.000
0.000
0.000
0.000
0.000
0.000
0.000
0.000
-0.000
-0.000
-0.000
-0.000
-0.000
-0.000
-0.000
-0.000
0.000
0.000
0.000
0.000
0.000
0.000
0.000
0.000
-0.000
-0.000
-0.000
-0.000
-0.000
-0.000
-0.000
-0.000
-0.000
0.000
0.000
0.000
0.000
0.000
0
0
0
0
0
0
0
0
0
0
0
0
0
0
0
0
0
0
0
0
0
0
0
0
0
0
0
0
0
0
0
0
0
0
0
0
0
0
0
0
0
0
0
0
0
0
0
0
0
0
0
0
0
0
0
0
0
0
0
0
0
0
0
0
0
0
0
0
0
0
0
0
0
0
0
0
0
0
0
0
0
0
0
0
0
0
0
0
0
0
0
0
0
0
0
0
0
0
0
0
0
0
0
0
0
0
0
0
0
0
0
0
0
0
0
0
0
0
0
0
0
0
0
0
0
0
0
0
0
0
0
0
0
0
0
0
0
0
0
0
0
0
0
0
0
0
0
0
0
0
0
0
0
0
0
0
0
0
0
0
0
0
0
0
0
0
0
0
0
0
0
0
0
0
0
0
0
0
0
0
0
0
0
0
0
0
0
0
0
0
0
0
0
0
0
0
0
0
0
0
0
0
0
0
0
0
0
0
0
0
0
0
0
0
0
0
0
0
0
0
0
0
0
0
0
0
0
0
0
0
0
0
0
0
0
0
0
0
0
0
0
0
0
0
0
0
0
0
0
0
0
0
0
0
0
0
0
0
0
0
0
0
0
0
0
0
0
0
0
0
0
0
0
0
0
0
0
0
0
0
0
0
0
0
0
0
0
0
0
0
0
0
0
0
0
0
0
0
0
0
0
0
0
0
0
0
0
0
0
0
0
0
0
0
0
0
0
0
0
0
0
0
0
0
0
0
0
0
0
0
0
0
0
0
0
0
0
0
0
0
0
0
0
0
0
0
0
0
0
0
0
0
0
0
0
0
0
0
0
0
0
0
0
0
0
0
0
0
0
0
0
0
0
0
0
0
0
0
0
0
0
0
0
0
0
0
0
0
0
0
0
0
0
0
0
0
0
0
0
0
0
0
0
0
0
0
0
0
0
0
0
0
0
0
0
0
0
0
0
0
0
0
0
0
0
0
0
0
0
0
0
0
0
0
0
0
0
0
0
0
0
0
0
0
0
0
0
0
0
0
0
0
0
0
0
0
0
0
0
0
0
0
0
0
0
0
0
0
0
0
0
0
0
0
0
0
0
0
0
0
0
0
0
0
0
0
0
0
0
0
0
0
0
0
0
0
0
0
0
0
0
0
0
$MCA_CAL:
3
-1.4656616 2.9313233 0.00000000000000
$ENER_FIT:
-1.4656616 2.9313233 0.00000000000000
$MCA_CAL_DATA:
3
298 872
597 1749
896 2625
$CAMBIO:
Parent file specification: C:\GADRAS-DRF\Temp\152EU_150.0_50.0_iron_1.53_7.0.pcf
Successful read of spectrum: Yes
Error message: None
Warning: None
Information: None
Neutrons: 0
Number of spectral records in the parent file: 1
Record number of this spectrum in the parent file: 1
Date and time of acquisition read successfully from the original file: Yes
Live time read successfully from the original file: Yes
True time read successfully from the original file: Yes
GADRAS Tag character is:  
Version: 130122
Parent file type: Sandia GADRAS PCF
