$SPEC_ID:
152EU,1uC{26,3.50}
$MEAS_TIM:
3600.00 3600.00
$DATE_MEA:
3/9/2018 5:22:25 PM
$DATA:
0 1193
1351.025
1315.859
1227.948
1372.045
1239.121
1072.978
931.338
815.820
724.129
646.266
600.917
563.431
529.190
504.866
489.863
481.315
476.472
477.677
488.591
506.079
535.464
569.296
599.864
627.288
657.469
693.326
733.396
767.509
796.891
832.896
878.645
932.325
981.354
1022.128
1071.923
1150.766
1287.617
1491.000
1742.127
2007.631
2203.412
2239.203
2075.808
1769.639
1419.135
1117.136
905.977
788.644
739.330
728.391
729.694
731.542
729.980
723.231
712.179
701.665
694.427
690.311
688.896
689.667
691.534
693.196
694.019
693.739
692.261
689.599
686.178
682.660
679.042
674.873
670.036
664.743
659.756
656.698
657.339
663.530
676.939
697.338
723.601
752.960
780.836
802.491
813.133
808.257
787.675
754.154
711.024
662.852
614.356
569.251
530.569
500.547
478.610
463.541
453.997
448.487
445.525
444.179
443.812
443.950
444.735
446.525
450.014
456.804
468.700
487.255
513.575
548.723
593.357
647.565
711.298
782.527
855.828
925.593
986.051
1031.412
1055.798
1055.485
1031.826
986.864
923.404
846.595
762.288
676.126
592.665
515.853
449.566
395.344
352.249
319.260
295.214
278.667
268.086
262.012
259.300
258.989
260.138
261.967
264.060
266.038
267.558
268.521
269.011
269.088
268.815
268.171
267.126
265.663
263.717
261.221
258.073
254.212
249.653
244.461
238.725
232.526
226.061
219.543
213.205
207.238
201.753
196.812
192.497
188.853
185.797
183.235
181.058
179.178
177.520
176.026
174.629
173.280
171.971
170.704
169.495
168.350
167.276
166.283
165.378
164.580
163.884
163.291
162.811
162.436
162.159
161.945
161.760
161.566
161.326
161.019
160.605
160.059
159.349
158.474
157.438
156.257
154.945
153.524
152.009
150.408
148.763
147.079
145.384
143.701
142.067
140.501
139.029
137.673
136.431
135.309
134.309
133.445
132.706
132.106
131.654
131.349
131.192
131.168
131.265
131.459
131.733
132.067
132.455
132.877
133.310
133.757
134.188
134.583
134.913
135.159
135.287
135.282
135.150
134.917
134.588
134.182
133.726
133.230
132.737
132.271
131.872
131.562
131.398
131.457
131.802
132.505
133.633
135.236
137.306
139.841
142.838
146.293
150.188
154.443
158.973
163.675
168.458
173.221
177.854
182.191
186.082
189.370
191.916
193.563
194.300
194.143
193.086
191.137
188.317
184.665
180.306
175.367
169.989
164.289
158.401
152.448
146.553
140.834
135.409
130.409
125.931
121.991
118.553
115.592
113.067
110.947
109.194
107.761
106.583
105.595
104.751
103.981
103.235
102.478
101.694
100.855
99.937
98.923
97.792
96.580
95.325
94.095
92.918
91.857
90.951
90.248
89.772
89.571
89.676
90.116
90.938
92.133
93.681
95.537
97.682
100.075
102.694
105.479
108.370
111.274
114.124
116.824
119.301
121.485
123.302
124.727
125.701
126.193
126.140
125.515
124.296
122.544
120.302
117.633
114.599
111.241
107.633
103.836
99.944
96.023
92.171
88.460
84.981
81.797
78.964
76.514
74.480
72.908
71.828
71.284
71.287
71.830
72.879
74.427
76.440
78.910
81.799
85.094
88.717
92.611
96.729
100.995
105.366
109.761
114.143
118.401
122.478
126.275
129.733
132.749
135.262
137.224
138.610
139.438
139.679
139.353
138.430
136.924
134.840
132.227
129.116
125.575
121.629
117.347
112.755
107.916
102.890
97.722
92.491
87.241
82.046
76.955
72.033
67.308
62.794
58.496
54.438
50.624
47.067
43.783
40.776
38.032
35.532
33.270
31.223
29.384
27.731
26.259
24.944
23.775
22.736
21.810
20.985
20.241
19.569
18.949
18.382
17.859
17.379
16.935
16.525
16.144
15.788
15.454
15.142
14.853
14.584
14.339
14.116
13.916
13.737
13.581
13.448
13.338
13.252
13.190
13.154
13.142
13.157
13.200
13.280
13.398
13.563
13.779
14.051
14.384
14.786
15.261
15.818
16.467
17.216
18.074
19.047
20.147
21.378
22.745
24.239
25.858
27.596
29.450
31.411
33.474
35.639
37.886
40.196
42.541
44.899
47.239
49.542
51.776
53.923
55.948
57.844
59.574
61.117
62.460
63.568
64.429
65.009
65.303
65.292
64.999
64.428
63.600
62.517
61.198
59.657
57.898
55.945
53.814
51.543
49.150
46.667
44.121
41.540
38.947
36.375
33.837
31.354
28.930
26.583
24.324
22.163
20.115
18.190
16.401
14.746
13.223
11.824
10.545
9.380
8.324
7.371
6.516
5.754
5.078
4.482
3.958
3.500
3.100
2.753
2.451
2.187
1.955
1.752
1.575
1.420
1.287
1.170
1.069
0.981
0.901
0.829
0.763
0.703
0.648
0.597
0.551
0.509
0.470
0.434
0.400
0.369
0.340
0.313
0.288
0.265
0.243
0.224
0.206
0.190
0.175
0.162
0.150
0.139
0.129
0.120
0.112
0.105
0.099
0.094
0.089
0.084
0.080
0.076
0.073
0.070
0.068
0.066
0.063
0.062
0.060
0.058
0.056
0.055
0.054
0.052
0.051
0.050
0.049
0.048
0.047
0.045
0.044
0.043
0.042
0.041
0.041
0.040
0.039
0.038
0.037
0.036
0.036
0.035
0.034
0.033
0.033
0.032
0.031
0.030
0.030
0.029
0.028
0.027
0.026
0.026
0.025
0.024
0.023
0.022
0.021
0.020
0.019
0.019
0.018
0.017
0.016
0.015
0.014
0.013
0.012
0.012
0.011
0.010
0.009
0.009
0.008
0.007
0.007
0.006
0.006
0.005
0.005
0.004
0.004
0.003
0.003
0.003
0.002
0.002
0.002
0.002
0.001
0.001
0.001
0.001
0.001
0.001
0.001
0.000
0.000
0.000
0.000
0.000
0.000
0.000
0.000
0.000
0.000
0.000
0.000
0.000
0.000
0.000
0.000
0.000
0.000
0.000
0.000
0.000
0.000
0.000
0.000
0.000
0.000
0.000
0.000
0.000
0.000
0.000
-0.000
-0.000
-0.000
-0.000
-0.000
-0.000
-0.000
-0.000
-0.000
-0.000
-0.000
0.000
0.000
0.000
0.000
0.000
0.000
0.000
0.000
0.000
0.000
0.000
-0.000
-0.000
-0.000
-0.000
-0.000
-0.000
-0.000
-0.000
-0.000
-0.000
-0.000
0.000
0.000
0.000
0.000
0.000
0.000
0
0
0
0
0
0
0
0
0
0
0
0
0
0
0
0
0
0
0
0
0
0
0
0
0
0
0
0
0
0
0
0
0
0
0
0
0
0
0
0
0
0
0
0
0
0
0
0
0
0
0
0
0
0
0
0
0
0
0
0
0
0
0
0
0
0
0
0
0
0
0
0
0
0
0
0
0
0
0
0
0
0
0
0
0
0
0
0
0
0
0
0
0
0
0
0
0
0
0
0
0
0
0
0
0
0
0
0
0
0
0
0
0
0
0
0
0
0
0
0
0
0
0
0
0
0
0
0
0
0
0
0
0
0
0
0
0
0
0
0
0
0
0
0
0
0
0
0
0
0
0
0
0
0
0
0
0
0
0
0
0
0
0
0
0
0
0
0
0
0
0
0
0
0
0
0
0
0
0
0
0
0
0
0
0
0
0
0
0
0
0
0
0
0
0
0
0
0
0
0
0
0
0
0
0
0
0
0
0
0
0
0
0
0
0
0
0
0
0
0
0
0
0
0
0
0
0
0
0
0
0
0
0
0
0
0
0
0
0
0
0
0
0
0
0
0
0
0
0
0
0
0
0
0
0
0
0
0
0
0
0
0
0
0
0
0
0
0
0
0
0
0
0
0
0
0
0
0
0
0
0
0
0
0
0
0
0
0
0
0
0
0
0
0
0
0
0
0
0
0
0
0
0
0
0
0
0
0
0
0
0
0
0
0
0
0
0
0
0
0
0
0
0
0
0
0
0
0
0
0
0
0
0
0
0
0
0
0
0
0
0
0
0
0
0
0
0
0
0
0
0
0
0
0
0
0
0
0
0
0
0
0
0
0
0
0
0
0
0
0
0
0
0
0
0
0
0
0
0
0
0
0
0
0
0
0
0
0
0
0
0
0
0
0
0
0
0
0
0
0
0
0
0
0
0
0
0
0
0
0
0
0
0
0
0
0
0
0
0
0
0
0
0
0
0
0
0
0
0
0
0
0
0
0
0
0
0
0
0
0
0
0
0
0
0
0
0
0
0
0
0
0
0
0
0
0
0
0
0
0
0
0
0
0
0
0
0
0
0
0
0
0
0
0
$MCA_CAL:
3
-1.4656616 2.9313233 0.00000000000000
$ENER_FIT:
-1.4656616 2.9313233 0.00000000000000
$MCA_CAL_DATA:
3
298 872
597 1749
896 2625
$CAMBIO:
Parent file specification: C:\GADRAS-DRF\Temp\152EU_75.0_50.0_iron_3.50_9.0.pcf
Successful read of spectrum: Yes
Error message: None
Warning: None
Information: None
Neutrons: 0
Number of spectral records in the parent file: 1
Record number of this spectrum in the parent file: 1
Date and time of acquisition read successfully from the original file: Yes
Live time read successfully from the original file: Yes
True time read successfully from the original file: Yes
GADRAS Tag character is:  
Version: 130122
Parent file type: Sandia GADRAS PCF
