$SPEC_ID:
152EU,1uC{82,0.51}
$MEAS_TIM:
3600.00 3600.00
$DATE_MEA:
3/9/2018 5:22:25 PM
$DATA:
0 1193
1463.213
1377.597
1263.646
1156.291
1023.326
903.224
794.005
702.113
628.056
563.567
527.850
502.525
488.150
484.313
477.283
461.221
431.853
407.441
401.921
407.018
418.063
432.463
439.773
440.911
437.395
438.441
442.150
445.526
449.078
456.980
470.896
487.350
501.836
512.868
525.094
547.290
593.436
679.356
812.177
972.201
1106.651
1148.706
1074.896
916.245
737.414
600.437
521.938
492.463
492.383
500.859
506.149
506.406
500.611
490.351
480.220
473.322
471.030
472.470
476.727
483.019
489.732
495.374
499.618
502.242
502.933
501.979
500.134
497.670
494.542
490.705
486.129
480.782
475.022
470.810
470.733
478.070
495.954
525.855
567.996
618.165
670.296
715.712
744.828
751.621
732.803
690.623
633.747
570.874
510.029
458.179
417.690
389.351
371.854
362.358
358.310
357.814
359.128
361.212
363.268
364.867
365.988
366.822
368.440
372.192
380.168
395.429
421.134
460.564
517.015
592.473
685.524
794.137
912.282
1029.985
1136.900
1222.159
1274.500
1285.158
1255.182
1188.044
1089.646
971.133
844.508
719.871
604.380
504.766
424.328
361.826
315.668
283.696
263.018
250.744
244.587
243.075
244.775
248.474
253.319
258.466
263.253
267.355
270.500
272.514
273.625
274.115
274.266
274.191
273.958
273.625
272.993
271.696
269.330
265.652
260.637
254.280
246.653
238.109
229.137
220.198
211.688
203.879
197.062
191.437
186.934
183.402
180.680
178.605
176.987
175.646
174.405
173.191
171.957
170.670
169.312
167.928
166.583
165.332
164.203
163.196
162.306
161.544
160.927
160.498
160.312
160.385
160.652
161.013
161.366
161.628
161.777
161.821
161.750
161.553
161.178
160.580
159.690
158.480
156.992
155.297
153.448
151.493
149.483
147.430
145.366
143.315
141.327
139.437
137.689
136.132
134.765
133.576
132.551
131.687
130.969
130.421
130.062
129.902
129.948
130.176
130.569
131.095
131.731
132.462
133.288
134.194
135.163
136.184
137.190
138.129
138.941
139.586
140.040
140.308
140.386
140.282
139.990
139.513
138.868
138.042
137.057
135.974
134.898
133.918
133.133
132.645
132.538
132.903
133.827
135.408
137.706
140.759
144.601
149.263
154.775
161.076
168.037
175.501
183.328
191.361
199.374
207.056
214.109
220.229
225.144
228.664
230.713
231.215
230.069
227.205
222.754
216.934
209.977
202.112
193.583
184.627
175.510
166.495
157.843
149.813
142.549
136.098
130.483
125.741
121.902
118.951
116.771
115.245
114.251
113.678
113.405
113.316
113.321
113.307
113.169
112.808
112.190
111.306
110.150
108.726
107.024
105.076
102.957
100.775
98.596
96.524
94.637
93.026
91.758
90.926
90.604
90.865
91.767
93.288
95.423
98.141
101.440
105.287
109.612
114.280
119.189
124.208
129.232
134.122
138.741
142.952
146.585
149.513
151.575
152.694
152.855
152.099
150.426
147.870
144.431
140.195
135.306
129.883
124.086
118.039
111.893
105.759
99.765
94.016
88.637
83.728
79.413
75.748
72.755
70.469
68.906
68.097
68.060
68.799
70.278
72.486
75.384
78.959
83.170
87.991
93.328
99.112
105.279
111.738
118.435
125.250
132.091
138.790
145.244
151.298
156.846
161.745
165.941
169.373
171.956
173.657
174.383
174.110
172.832
170.638
167.588
163.755
159.186
153.975
148.172
141.891
135.197
128.197
120.982
113.625
106.236
98.881
91.663
84.650
77.938
71.609
65.747
60.391
55.527
51.119
47.139
43.560
40.354
37.490
34.940
32.684
30.694
28.950
27.423
26.095
24.935
23.928
23.047
22.271
21.581
20.951
20.365
19.801
19.262
18.742
18.245
17.768
17.311
16.873
16.456
16.060
15.688
15.343
15.026
14.740
14.487
14.267
14.078
13.918
13.783
13.672
13.583
13.512
13.460
13.424
13.406
13.405
13.422
13.454
13.505
13.577
13.684
13.838
14.054
14.345
14.723
15.204
15.800
16.530
17.409
18.457
19.687
21.122
22.773
24.659
26.776
29.115
31.664
34.413
37.357
40.481
43.778
47.218
50.754
54.333
57.915
61.443
64.878
68.159
71.259
74.118
76.696
78.961
80.856
82.355
83.396
83.965
84.032
83.636
82.783
81.508
79.820
77.748
75.314
72.535
69.469
66.158
62.661
59.021
55.295
51.533
47.786
44.088
40.472
36.955
33.565
30.321
27.250
24.375
21.716
19.280
17.054
15.033
13.206
11.564
10.099
8.802
7.662
6.669
5.808
5.066
4.432
3.891
3.430
3.036
2.697
2.406
2.158
1.947
1.768
1.616
1.486
1.371
1.269
1.176
1.092
1.015
0.945
0.880
0.820
0.763
0.708
0.656
0.606
0.559
0.514
0.471
0.431
0.394
0.360
0.329
0.300
0.273
0.249
0.228
0.208
0.190
0.175
0.161
0.148
0.137
0.128
0.119
0.112
0.105
0.100
0.095
0.091
0.087
0.084
0.081
0.078
0.076
0.074
0.072
0.071
0.069
0.067
0.066
0.064
0.063
0.061
0.060
0.059
0.057
0.056
0.055
0.053
0.052
0.051
0.050
0.048
0.047
0.046
0.045
0.044
0.043
0.043
0.042
0.041
0.040
0.039
0.039
0.038
0.037
0.036
0.036
0.035
0.034
0.033
0.033
0.032
0.031
0.030
0.029
0.028
0.027
0.026
0.025
0.024
0.022
0.021
0.020
0.019
0.018
0.017
0.016
0.014
0.013
0.012
0.011
0.010
0.009
0.009
0.008
0.007
0.006
0.006
0.005
0.004
0.004
0.003
0.003
0.003
0.002
0.002
0.002
0.001
0.001
0.001
0.001
0.001
0.001
0.001
0.000
0.000
0.000
0.000
0.000
0.000
0.000
0.000
0.000
0.000
0.000
0.000
0.000
0.000
0.000
0.000
0.000
0.000
0.000
0.000
0.000
0.000
0.000
0.000
0.000
0.000
0.000
0.000
-0.000
-0.000
-0.000
-0.000
-0.000
-0.000
-0.000
-0.000
-0.000
0.000
0.000
0.000
0.000
0.000
0.000
0.000
0.000
0.000
0.000
0.000
0.000
0.000
0.000
0.000
0.000
0
0
0
0
0
0
0
0
0
0
0
0
0
0
0
0
0
0
0
0
0
0
0
0
0
0
0
0
0
0
0
0
0
0
0
0
0
0
0
0
0
0
0
0
0
0
0
0
0
0
0
0
0
0
0
0
0
0
0
0
0
0
0
0
0
0
0
0
0
0
0
0
0
0
0
0
0
0
0
0
0
0
0
0
0
0
0
0
0
0
0
0
0
0
0
0
0
0
0
0
0
0
0
0
0
0
0
0
0
0
0
0
0
0
0
0
0
0
0
0
0
0
0
0
0
0
0
0
0
0
0
0
0
0
0
0
0
0
0
0
0
0
0
0
0
0
0
0
0
0
0
0
0
0
0
0
0
0
0
0
0
0
0
0
0
0
0
0
0
0
0
0
0
0
0
0
0
0
0
0
0
0
0
0
0
0
0
0
0
0
0
0
0
0
0
0
0
0
0
0
0
0
0
0
0
0
0
0
0
0
0
0
0
0
0
0
0
0
0
0
0
0
0
0
0
0
0
0
0
0
0
0
0
0
0
0
0
0
0
0
0
0
0
0
0
0
0
0
0
0
0
0
0
0
0
0
0
0
0
0
0
0
0
0
0
0
0
0
0
0
0
0
0
0
0
0
0
0
0
0
0
0
0
0
0
0
0
0
0
0
0
0
0
0
0
0
0
0
0
0
0
0
0
0
0
0
0
0
0
0
0
0
0
0
0
0
0
0
0
0
0
0
0
0
0
0
0
0
0
0
0
0
0
0
0
0
0
0
0
0
0
0
0
0
0
0
0
0
0
0
0
0
0
0
0
0
0
0
0
0
0
0
0
0
0
0
0
0
0
0
0
0
0
0
0
0
0
0
0
0
0
0
0
0
0
0
0
0
0
0
0
0
0
0
0
0
0
0
0
0
0
0
0
0
0
0
0
0
0
0
0
0
0
0
0
0
0
0
0
0
0
0
0
0
0
0
0
0
0
0
0
0
0
0
0
0
0
0
0
0
0
0
0
0
0
0
0
0
0
0
0
0
0
0
0
0
0
0
0
0
0
0
0
0
0
0
0
0
0
0
0
0
0
0
0
0
0
0
0
0
0
0
0
0
0
0
0
0
0
0
0
0
0
0
$MCA_CAL:
3
-1.4656616 2.9313233 0.00000000000000
$ENER_FIT:
-1.4656616 2.9313233 0.00000000000000
$MCA_CAL_DATA:
3
298 872
597 1749
896 2625
$CAMBIO:
Parent file specification: C:\GADRAS-DRF\Temp\152EU_100.0_50.0_lead_0.51_8.0.pcf
Successful read of spectrum: Yes
Error message: None
Warning: None
Information: None
Neutrons: 0
Number of spectral records in the parent file: 1
Record number of this spectrum in the parent file: 1
Date and time of acquisition read successfully from the original file: Yes
Live time read successfully from the original file: Yes
True time read successfully from the original file: Yes
GADRAS Tag character is:  
Version: 130122
Parent file type: Sandia GADRAS PCF
