$SPEC_ID:
152EU,1uC{82,0.92}
$MEAS_TIM:
3600.00 3600.00
$DATE_MEA:
3/9/2018 5:22:25 PM
$DATA:
0 1193
1693.296
1585.616
1453.857
1370.246
1205.874
1062.753
935.673
832.037
746.097
669.349
625.273
586.472
548.394
523.421
509.395
499.484
492.044
490.456
497.420
509.975
528.279
551.295
568.963
567.258
558.692
552.038
550.576
548.887
545.068
542.123
542.757
546.039
550.386
553.541
556.847
561.569
570.859
590.391
626.624
678.709
729.760
749.203
724.982
672.302
619.177
591.933
589.495
603.945
629.535
660.436
686.897
703.948
707.791
697.016
677.668
656.041
636.912
622.986
614.219
609.343
606.515
603.562
599.508
594.935
589.866
584.695
580.902
578.841
577.846
576.718
574.718
571.963
568.538
564.601
561.134
560.311
566.780
584.601
616.282
660.103
710.234
756.309
785.799
789.436
761.614
708.904
642.194
572.925
511.426
462.267
427.550
405.187
391.933
384.769
380.959
379.246
378.945
379.408
379.961
379.988
378.888
376.548
373.495
370.653
369.865
373.369
384.831
408.398
448.741
510.882
597.410
707.336
837.258
975.522
1108.035
1218.070
1286.741
1301.115
1262.415
1174.709
1050.675
907.649
761.581
625.040
509.509
418.344
349.844
301.622
269.457
248.870
236.570
230.538
228.902
230.611
234.912
240.999
247.952
254.818
260.814
265.353
267.923
268.662
268.175
267.054
265.920
265.374
265.833
266.946
268.143
268.840
268.303
265.812
260.912
253.817
244.858
234.503
223.597
213.005
203.441
195.202
188.554
183.600
180.099
177.751
176.245
175.291
174.585
173.870
173.034
172.035
170.823
169.434
167.933
166.382
164.853
163.399
162.073
160.920
159.948
159.179
158.616
158.283
158.219
158.436
158.883
159.440
159.982
160.427
160.774
161.052
161.260
161.329
161.137
160.580
159.587
158.221
156.552
154.660
152.599
150.410
148.163
145.894
143.644
141.448
139.351
137.382
135.574
133.971
132.593
131.429
130.444
129.617
128.913
128.357
127.979
127.795
127.816
128.019
128.391
128.904
129.551
130.333
131.259
132.326
133.496
134.737
135.987
137.200
138.312
139.267
139.992
140.432
140.574
140.444
140.047
139.400
138.520
137.396
136.043
134.468
132.765
131.056
129.470
128.144
127.176
126.657
126.673
127.321
128.696
130.923
134.124
138.421
143.883
150.472
158.153
166.869
176.523
186.786
197.289
207.639
217.457
226.312
233.777
239.375
242.678
243.472
241.845
237.931
231.876
223.843
214.224
203.469
192.042
180.378
168.862
157.797
147.488
138.237
130.289
123.667
118.319
114.206
111.279
109.442
108.513
108.315
108.668
109.404
110.382
111.470
112.559
113.516
114.226
114.584
114.498
113.858
112.571
110.650
108.211
105.383
102.284
99.060
95.806
92.653
89.704
87.083
84.887
83.222
82.169
81.810
82.242
83.524
85.661
88.621
92.398
96.962
102.276
108.191
114.575
121.270
128.142
135.001
141.616
147.745
153.116
157.501
160.681
162.603
163.200
162.449
160.290
156.739
151.941
146.110
139.454
132.154
124.433
116.473
108.484
100.646
93.170
86.235
79.944
74.328
69.442
65.322
62.007
59.522
57.853
56.994
56.931
57.661
59.167
61.450
64.496
68.307
72.863
78.173
84.167
90.778
97.949
105.595
113.662
122.014
130.513
138.948
147.169
154.978
162.229
168.755
174.444
179.165
182.762
185.135
186.193
185.990
184.529
181.865
178.021
173.049
167.049
160.206
152.650
144.564
136.081
127.364
118.539
109.714
101.027
92.585
84.524
76.911
69.799
63.225
57.232
51.854
47.132
43.033
39.494
36.455
33.853
31.623
29.705
28.066
26.671
25.494
24.500
23.666
22.954
22.346
21.813
21.330
20.875
20.420
19.952
19.465
18.967
18.456
17.940
17.420
16.901
16.390
15.896
15.426
14.987
14.590
14.239
13.936
13.681
13.476
13.318
13.211
13.150
13.130
13.138
13.165
13.202
13.235
13.259
13.265
13.257
13.230
13.185
13.121
13.037
12.943
12.860
12.806
12.800
12.865
13.019
13.287
13.697
14.283
15.075
16.106
17.406
19.005
20.914
23.142
25.694
28.576
31.799
35.364
39.250
43.403
47.770
52.288
56.911
61.574
66.226
70.770
75.134
79.213
82.918
86.171
88.868
90.970
92.441
93.294
93.486
93.022
91.872
90.047
87.585
84.573
81.086
77.192
72.979
68.511
63.874
59.124
54.337
49.580
44.920
40.422
36.158
32.159
28.438
24.994
21.834
18.962
16.381
14.096
12.093
10.350
8.843
7.551
6.451
5.521
4.736
4.082
3.542
3.101
2.744
2.454
2.218
2.020
1.855
1.716
1.599
1.501
1.415
1.338
1.265
1.194
1.127
1.062
0.998
0.936
0.876
0.816
0.757
0.700
0.644
0.590
0.539
0.490
0.445
0.402
0.362
0.326
0.292
0.262
0.235
0.211
0.190
0.172
0.156
0.143
0.131
0.122
0.113
0.106
0.101
0.096
0.092
0.088
0.085
0.083
0.081
0.079
0.077
0.075
0.074
0.072
0.071
0.070
0.068
0.067
0.066
0.064
0.063
0.062
0.060
0.059
0.057
0.056
0.054
0.053
0.052
0.050
0.049
0.047
0.046
0.045
0.044
0.043
0.042
0.041
0.040
0.040
0.039
0.039
0.038
0.038
0.037
0.037
0.036
0.036
0.035
0.035
0.034
0.034
0.033
0.032
0.031
0.030
0.029
0.028
0.027
0.025
0.024
0.023
0.021
0.020
0.018
0.017
0.016
0.014
0.013
0.012
0.011
0.010
0.009
0.008
0.007
0.006
0.005
0.004
0.004
0.003
0.003
0.002
0.002
0.002
0.001
0.001
0.001
0.001
0.001
0.001
0.000
0.000
0.000
0.000
0.000
0.000
0.000
0.000
0.000
0.000
0.000
0.000
0.000
0.000
0.000
0.000
0.000
0.000
0.000
-0.000
-0.000
-0.000
-0.000
-0.000
-0.000
-0.000
-0.000
0.000
0.000
0.000
0.000
0.000
0.000
0.000
0.000
-0.000
-0.000
-0.000
-0.000
-0.000
-0.000
-0.000
-0.000
-0.000
0.000
0.000
0.000
0.000
0.000
0
0
0
0
0
0
0
0
0
0
0
0
0
0
0
0
0
0
0
0
0
0
0
0
0
0
0
0
0
0
0
0
0
0
0
0
0
0
0
0
0
0
0
0
0
0
0
0
0
0
0
0
0
0
0
0
0
0
0
0
0
0
0
0
0
0
0
0
0
0
0
0
0
0
0
0
0
0
0
0
0
0
0
0
0
0
0
0
0
0
0
0
0
0
0
0
0
0
0
0
0
0
0
0
0
0
0
0
0
0
0
0
0
0
0
0
0
0
0
0
0
0
0
0
0
0
0
0
0
0
0
0
0
0
0
0
0
0
0
0
0
0
0
0
0
0
0
0
0
0
0
0
0
0
0
0
0
0
0
0
0
0
0
0
0
0
0
0
0
0
0
0
0
0
0
0
0
0
0
0
0
0
0
0
0
0
0
0
0
0
0
0
0
0
0
0
0
0
0
0
0
0
0
0
0
0
0
0
0
0
0
0
0
0
0
0
0
0
0
0
0
0
0
0
0
0
0
0
0
0
0
0
0
0
0
0
0
0
0
0
0
0
0
0
0
0
0
0
0
0
0
0
0
0
0
0
0
0
0
0
0
0
0
0
0
0
0
0
0
0
0
0
0
0
0
0
0
0
0
0
0
0
0
0
0
0
0
0
0
0
0
0
0
0
0
0
0
0
0
0
0
0
0
0
0
0
0
0
0
0
0
0
0
0
0
0
0
0
0
0
0
0
0
0
0
0
0
0
0
0
0
0
0
0
0
0
0
0
0
0
0
0
0
0
0
0
0
0
0
0
0
0
0
0
0
0
0
0
0
0
0
0
0
0
0
0
0
0
0
0
0
0
0
0
0
0
0
0
0
0
0
0
0
0
0
0
0
0
0
0
0
0
0
0
0
0
0
0
0
0
0
0
0
0
0
0
0
0
0
0
0
0
0
0
0
0
0
0
0
0
0
0
0
0
0
0
0
0
0
0
0
0
0
0
0
0
0
0
0
0
0
0
0
0
0
0
0
0
0
0
0
0
0
0
0
0
0
0
0
0
0
0
0
0
0
0
0
0
0
0
0
0
0
0
0
0
0
0
0
0
0
0
0
0
0
0
0
0
0
0
0
0
0
0
0
0
0
0
0
0
0
0
0
$MCA_CAL:
3
-1.4656616 2.9313233 0.00000000000000
$ENER_FIT:
-1.4656616 2.9313233 0.00000000000000
$MCA_CAL_DATA:
3
298 872
597 1749
896 2625
$CAMBIO:
Parent file specification: C:\GADRAS-DRF\Temp\152EU_50.0_50.0_lead_0.92_7.0.pcf
Successful read of spectrum: Yes
Error message: None
Warning: None
Information: None
Neutrons: 0
Number of spectral records in the parent file: 1
Record number of this spectrum in the parent file: 1
Date and time of acquisition read successfully from the original file: Yes
Live time read successfully from the original file: Yes
True time read successfully from the original file: Yes
GADRAS Tag character is:  
Version: 130122
Parent file type: Sandia GADRAS PCF
