$SPEC_ID:
152EU,1uC{26,1.53}
$MEAS_TIM:
3600.00 3600.00
$DATE_MEA:
3/9/2018 5:22:25 PM
$DATA:
0 1193
1497.080
1466.131
1350.773
1369.966
1187.880
1034.125
893.075
774.567
689.706
616.591
577.668
562.679
605.679
669.628
658.888
629.280
534.466
462.140
450.716
460.300
483.927
516.929
544.760
562.895
592.602
645.807
704.976
738.589
753.303
796.222
875.602
960.947
1019.394
1047.120
1072.791
1115.613
1211.209
1447.108
1942.511
2742.879
3562.933
3868.791
3368.974
2385.692
1454.579
883.091
648.910
589.757
595.525
615.755
628.358
628.513
618.207
602.152
588.100
580.040
577.907
580.085
585.696
593.962
602.956
610.294
614.959
616.852
616.114
612.769
608.738
605.501
601.925
597.187
591.108
584.160
575.749
565.205
555.367
551.169
559.362
586.891
639.223
715.850
808.461
897.784
961.243
976.619
939.268
856.256
749.470
641.999
551.104
485.933
444.345
421.450
410.493
406.624
406.809
409.178
412.653
416.451
419.900
422.200
422.464
420.505
416.673
412.082
408.535
408.598
415.647
434.669
472.662
536.308
631.326
760.766
919.467
1098.430
1274.958
1421.973
1516.589
1539.258
1484.148
1364.002
1195.931
1005.670
819.595
653.849
519.298
419.697
349.518
302.616
272.904
254.471
243.605
238.469
237.540
240.165
245.799
253.592
262.486
271.354
278.924
283.936
286.023
285.619
283.321
280.215
277.565
276.248
276.531
278.556
281.499
283.903
284.391
282.260
276.976
268.412
257.372
244.760
231.589
218.947
207.907
198.922
192.034
187.213
184.139
182.342
181.359
180.828
180.403
179.804
178.944
177.806
176.377
174.733
172.955
171.123
169.335
167.681
166.227
164.963
163.854
162.898
162.158
161.731
161.701
161.979
162.432
162.932
163.441
163.968
164.517
165.041
165.411
165.509
165.247
164.609
163.564
162.115
160.322
158.276
156.047
153.690
151.280
148.860
146.482
144.174
141.980
139.924
138.043
136.383
134.971
133.797
132.816
131.994
131.287
130.720
130.320
130.101
130.064
130.191
130.477
130.905
131.485
132.226
133.146
134.228
135.433
136.748
138.124
139.487
140.746
141.824
142.642
143.166
143.360
143.203
142.688
141.850
140.732
139.353
137.764
136.003
134.120
132.166
130.261
128.550
127.157
126.203
125.755
125.888
126.660
128.190
130.672
134.311
139.306
145.743
153.578
162.736
173.149
184.561
196.515
208.520
220.101
230.713
239.775
246.649
250.752
251.809
249.922
245.237
237.917
228.253
216.816
204.194
190.987
177.719
164.807
152.647
141.636
132.094
124.065
117.534
112.471
108.843
106.508
105.287
104.987
105.425
106.432
107.863
109.565
111.379
113.163
114.736
115.928
116.565
116.504
115.727
114.272
112.182
109.490
106.293
102.724
98.952
95.104
91.340
87.786
84.585
81.858
79.749
78.344
77.697
77.874
78.924
80.900
83.789
87.592
92.289
97.876
104.257
111.284
118.780
126.591
134.522
142.297
149.599
156.081
161.440
165.395
167.857
168.717
167.918
165.363
161.139
155.468
148.613
140.834
132.364
123.481
114.431
105.487
96.893
88.902
81.603
75.052
69.284
64.358
60.302
57.094
54.710
53.114
52.277
52.173
52.813
54.198
56.348
59.263
62.959
67.420
72.660
78.657
85.408
92.890
100.977
109.561
118.496
127.691
136.966
146.134
154.944
163.194
170.631
177.067
182.383
186.455
189.211
190.522
190.336
188.660
185.605
181.249
175.686
168.987
161.331
152.886
143.871
134.458
124.856
115.235
105.712
96.437
87.523
79.118
71.315
64.157
57.662
51.853
46.744
42.357
38.639
35.508
32.887
30.693
28.847
27.284
25.977
24.894
24.009
23.290
22.714
22.242
21.848
21.497
21.156
20.796
20.396
19.962
19.491
18.988
18.453
17.892
17.312
16.728
16.151
15.594
15.068
14.583
14.149
13.768
13.448
13.195
13.013
12.900
12.848
12.848
12.891
12.969
13.071
13.187
13.301
13.400
13.468
13.494
13.467
13.390
13.270
13.112
12.921
12.705
12.475
12.259
12.086
11.983
11.980
12.103
12.386
12.866
13.584
14.574
15.877
17.531
19.558
21.967
24.766
27.968
31.578
35.604
40.014
44.743
49.716
54.875
60.141
65.456
70.711
75.811
80.620
85.022
88.911
92.156
94.697
96.487
97.528
97.767
97.198
95.782
93.552
90.585
86.987
82.855
78.276
73.358
68.185
62.861
57.466
52.098
46.848
41.808
37.055
32.622
28.515
24.747
21.324
18.259
15.559
13.210
11.184
9.448
7.975
6.732
5.691
4.824
4.111
3.532
3.068
2.699
2.405
2.169
1.980
1.829
1.710
1.615
1.536
1.466
1.401
1.338
1.277
1.218
1.159
1.100
1.039
0.977
0.915
0.852
0.790
0.728
0.667
0.608
0.552
0.497
0.446
0.398
0.354
0.315
0.280
0.248
0.221
0.197
0.177
0.159
0.144
0.131
0.121
0.112
0.105
0.099
0.094
0.090
0.087
0.084
0.082
0.080
0.078
0.077
0.075
0.074
0.073
0.072
0.071
0.070
0.068
0.067
0.066
0.065
0.063
0.062
0.061
0.059
0.058
0.056
0.055
0.053
0.051
0.050
0.048
0.047
0.046
0.044
0.043
0.042
0.041
0.040
0.039
0.038
0.038
0.037
0.037
0.037
0.037
0.036
0.036
0.036
0.036
0.035
0.035
0.035
0.034
0.033
0.032
0.032
0.031
0.029
0.028
0.027
0.025
0.024
0.022
0.021
0.019
0.018
0.016
0.015
0.013
0.012
0.011
0.010
0.008
0.007
0.006
0.006
0.005
0.004
0.003
0.003
0.002
0.002
0.002
0.001
0.001
0.001
0.001
0.001
0.000
0.000
0.000
0.000
0.000
0.000
0.000
0.000
0.000
0.000
0.000
0.000
0.000
0.000
0.000
0.000
0.000
0.000
0.000
0.000
0.000
0.000
0.000
-0.000
-0.000
-0.000
-0.000
-0.000
-0.000
-0.000
0.000
0.000
0.000
0.000
0.000
0.000
0.000
0.000
-0.000
-0.000
-0.000
-0.000
-0.000
-0.000
-0.000
-0.000
0.000
0.000
0.000
0.000
0
0
0
0
0
0
0
0
0
0
0
0
0
0
0
0
0
0
0
0
0
0
0
0
0
0
0
0
0
0
0
0
0
0
0
0
0
0
0
0
0
0
0
0
0
0
0
0
0
0
0
0
0
0
0
0
0
0
0
0
0
0
0
0
0
0
0
0
0
0
0
0
0
0
0
0
0
0
0
0
0
0
0
0
0
0
0
0
0
0
0
0
0
0
0
0
0
0
0
0
0
0
0
0
0
0
0
0
0
0
0
0
0
0
0
0
0
0
0
0
0
0
0
0
0
0
0
0
0
0
0
0
0
0
0
0
0
0
0
0
0
0
0
0
0
0
0
0
0
0
0
0
0
0
0
0
0
0
0
0
0
0
0
0
0
0
0
0
0
0
0
0
0
0
0
0
0
0
0
0
0
0
0
0
0
0
0
0
0
0
0
0
0
0
0
0
0
0
0
0
0
0
0
0
0
0
0
0
0
0
0
0
0
0
0
0
0
0
0
0
0
0
0
0
0
0
0
0
0
0
0
0
0
0
0
0
0
0
0
0
0
0
0
0
0
0
0
0
0
0
0
0
0
0
0
0
0
0
0
0
0
0
0
0
0
0
0
0
0
0
0
0
0
0
0
0
0
0
0
0
0
0
0
0
0
0
0
0
0
0
0
0
0
0
0
0
0
0
0
0
0
0
0
0
0
0
0
0
0
0
0
0
0
0
0
0
0
0
0
0
0
0
0
0
0
0
0
0
0
0
0
0
0
0
0
0
0
0
0
0
0
0
0
0
0
0
0
0
0
0
0
0
0
0
0
0
0
0
0
0
0
0
0
0
0
0
0
0
0
0
0
0
0
0
0
0
0
0
0
0
0
0
0
0
0
0
0
0
0
0
0
0
0
0
0
0
0
0
0
0
0
0
0
0
0
0
0
0
0
0
0
0
0
0
0
0
0
0
0
0
0
0
0
0
0
0
0
0
0
0
0
0
0
0
0
0
0
0
0
0
0
0
0
0
0
0
0
0
0
0
0
0
0
0
0
0
0
0
0
0
0
0
0
0
0
0
0
0
0
0
0
0
0
0
0
0
0
0
0
0
0
0
0
0
0
0
0
0
0
0
0
0
0
0
0
0
0
0
0
0
0
0
0
0
0
$MCA_CAL:
3
-1.4656616 2.9313233 0.00000000000000
$ENER_FIT:
-1.4656616 2.9313233 0.00000000000000
$MCA_CAL_DATA:
3
298 872
597 1749
896 2625
$CAMBIO:
Parent file specification: C:\GADRAS-DRF\Temp\152EU_100.0_50.0_iron_1.53_6.5.pcf
Successful read of spectrum: Yes
Error message: None
Warning: None
Information: None
Neutrons: 0
Number of spectral records in the parent file: 1
Record number of this spectrum in the parent file: 1
Date and time of acquisition read successfully from the original file: Yes
Live time read successfully from the original file: Yes
True time read successfully from the original file: Yes
GADRAS Tag character is:  
Version: 130122
Parent file type: Sandia GADRAS PCF
