$SPEC_ID:
152EU,1uC{13,4.18}
$MEAS_TIM:
3600.00 3600.00
$DATE_MEA:
3/9/2018 5:22:25 PM
$DATA:
0 1193
1208.538
1215.518
1264.230
1839.610
1537.397
1196.521
987.470
792.160
719.854
682.174
809.233
1385.031
2844.975
3926.930
3128.114
2026.810
1253.819
802.903
703.331
751.008
821.568
896.737
961.910
1011.500
1068.696
1136.959
1197.220
1244.686
1285.283
1329.525
1382.830
1440.710
1485.019
1502.802
1520.418
1561.733
1667.285
1884.194
2245.590
2715.766
3126.267
3216.121
2873.596
2252.746
1615.349
1151.407
894.367
789.979
765.729
766.979
770.367
769.215
762.941
750.731
737.409
727.777
722.015
719.368
719.007
720.500
722.491
723.316
722.819
721.091
718.033
713.736
708.489
702.871
697.111
690.447
682.534
673.766
664.448
654.922
647.479
645.619
653.545
674.923
708.930
752.420
798.583
839.073
863.861
863.882
838.414
790.352
727.939
661.401
599.162
548.296
510.960
485.339
469.310
460.519
456.699
455.855
456.196
456.938
457.564
457.686
456.953
455.434
453.877
453.189
454.926
460.853
473.867
497.923
536.395
590.794
662.029
748.136
844.693
945.585
1038.565
1110.308
1151.334
1156.483
1122.184
1053.557
959.253
848.550
732.527
622.262
524.793
442.914
378.874
331.559
298.077
275.622
261.694
253.919
250.252
249.702
251.431
254.638
258.620
262.668
266.217
268.907
270.416
270.690
270.114
269.083
267.938
266.887
266.133
265.668
265.073
263.913
261.794
258.527
253.928
247.909
240.761
232.838
224.523
216.234
208.428
201.533
195.737
191.003
187.305
184.544
182.492
180.922
179.611
178.440
177.302
176.107
174.812
173.439
172.002
170.520
169.047
167.628
166.308
165.113
164.052
163.146
162.394
161.809
161.414
161.210
161.169
161.219
161.282
161.289
161.209
161.044
160.773
160.381
159.821
159.055
158.026
156.732
155.217
153.543
151.753
149.878
147.963
146.024
144.092
142.194
140.366
138.629
137.010
135.529
134.186
132.989
131.943
131.058
130.316
129.721
129.278
128.975
128.810
128.778
128.882
129.108
129.449
129.894
130.441
131.066
131.733
132.432
133.124
133.776
134.343
134.790
135.064
135.144
135.033
134.752
134.303
133.697
132.947
132.034
130.972
129.757
128.463
127.188
126.040
125.134
124.555
124.366
124.622
125.388
126.713
128.661
131.295
134.678
138.870
143.872
149.581
155.864
162.600
169.651
176.790
183.702
190.091
195.647
200.118
203.326
205.147
205.457
204.115
201.128
196.707
191.048
184.365
176.868
168.811
160.451
152.060
143.907
136.240
129.195
122.861
117.336
112.704
109.025
106.219
104.184
102.801
101.963
101.558
101.497
101.679
102.001
102.381
102.716
102.921
102.907
102.595
101.892
100.746
99.221
97.391
95.341
93.140
90.888
88.640
86.488
84.499
82.759
81.331
80.290
79.693
79.593
80.061
81.145
82.855
85.142
87.980
91.320
95.134
99.336
103.821
108.456
113.129
117.702
122.055
126.055
129.538
132.377
134.414
135.525
135.653
134.855
133.159
130.618
127.258
123.153
118.440
113.243
107.720
102.001
96.236
90.530
85.001
79.744
74.872
70.477
66.658
63.435
60.817
58.825
57.465
56.752
56.687
57.264
58.466
60.291
62.721
65.753
69.342
73.464
78.059
83.085
88.507
94.261
100.264
106.384
112.540
118.589
124.441
129.967
135.085
139.670
143.636
146.882
149.287
150.802
151.402
151.123
149.955
147.927
145.046
141.353
136.926
131.888
126.320
120.346
114.047
107.536
100.903
94.221
87.592
81.089
74.813
68.826
63.173
57.877
52.964
48.454
44.382
40.760
37.566
34.766
32.322
30.195
28.345
26.740
25.345
24.141
23.100
22.205
21.425
20.743
20.135
19.589
19.094
18.632
18.198
17.773
17.349
16.924
16.504
16.088
15.682
15.287
14.909
14.547
14.207
13.893
13.605
13.350
13.129
12.945
12.795
12.676
12.582
12.511
12.458
12.418
12.390
12.369
12.354
12.340
12.328
12.312
12.292
12.275
12.271
12.290
12.345
12.445
12.602
12.829
13.144
13.568
14.121
14.824
15.697
16.761
18.030
19.510
21.206
23.122
25.260
27.625
30.223
33.037
36.035
39.180
42.438
45.766
49.136
52.502
55.826
59.040
62.103
64.942
67.501
69.730
71.562
72.973
73.941
74.481
74.565
74.204
73.378
72.095
70.359
68.225
65.745
62.960
59.931
56.697
53.318
49.834
46.293
42.736
39.207
35.744
32.396
29.199
26.194
23.384
20.772
18.360
16.144
14.128
12.311
10.693
9.264
8.011
6.918
5.972
5.158
4.461
3.867
3.363
2.940
2.587
2.296
2.055
1.856
1.689
1.546
1.421
1.312
1.218
1.135
1.062
0.995
0.933
0.874
0.817
0.762
0.710
0.661
0.613
0.568
0.524
0.483
0.443
0.405
0.370
0.337
0.306
0.278
0.252
0.228
0.207
0.188
0.170
0.155
0.142
0.130
0.119
0.110
0.103
0.096
0.091
0.086
0.082
0.078
0.075
0.073
0.070
0.068
0.066
0.065
0.063
0.062
0.061
0.059
0.058
0.057
0.056
0.054
0.053
0.052
0.051
0.050
0.048
0.047
0.046
0.045
0.044
0.043
0.042
0.041
0.040
0.039
0.038
0.037
0.036
0.036
0.035
0.034
0.034
0.033
0.033
0.032
0.032
0.031
0.031
0.030
0.030
0.029
0.028
0.028
0.027
0.026
0.025
0.024
0.023
0.022
0.021
0.020
0.019
0.018
0.017
0.016
0.015
0.014
0.013
0.012
0.011
0.010
0.009
0.008
0.007
0.007
0.006
0.005
0.005
0.004
0.004
0.003
0.003
0.002
0.002
0.002
0.001
0.001
0.001
0.001
0.001
0.001
0.000
0.000
0.000
0.000
0.000
0.000
0.000
0.000
0.000
0.000
0.000
0.000
0.000
0.000
0.000
0.000
0.000
0.000
0.000
0.000
0.000
0.000
0.000
0.000
-0.000
-0.000
-0.000
-0.000
-0.000
-0.000
-0.000
-0.000
-0.000
0.000
0.000
0.000
0.000
0.000
0.000
0.000
0.000
0.000
0.000
0.000
0.000
0.000
0.000
0
0
0
0
0
0
0
0
0
0
0
0
0
0
0
0
0
0
0
0
0
0
0
0
0
0
0
0
0
0
0
0
0
0
0
0
0
0
0
0
0
0
0
0
0
0
0
0
0
0
0
0
0
0
0
0
0
0
0
0
0
0
0
0
0
0
0
0
0
0
0
0
0
0
0
0
0
0
0
0
0
0
0
0
0
0
0
0
0
0
0
0
0
0
0
0
0
0
0
0
0
0
0
0
0
0
0
0
0
0
0
0
0
0
0
0
0
0
0
0
0
0
0
0
0
0
0
0
0
0
0
0
0
0
0
0
0
0
0
0
0
0
0
0
0
0
0
0
0
0
0
0
0
0
0
0
0
0
0
0
0
0
0
0
0
0
0
0
0
0
0
0
0
0
0
0
0
0
0
0
0
0
0
0
0
0
0
0
0
0
0
0
0
0
0
0
0
0
0
0
0
0
0
0
0
0
0
0
0
0
0
0
0
0
0
0
0
0
0
0
0
0
0
0
0
0
0
0
0
0
0
0
0
0
0
0
0
0
0
0
0
0
0
0
0
0
0
0
0
0
0
0
0
0
0
0
0
0
0
0
0
0
0
0
0
0
0
0
0
0
0
0
0
0
0
0
0
0
0
0
0
0
0
0
0
0
0
0
0
0
0
0
0
0
0
0
0
0
0
0
0
0
0
0
0
0
0
0
0
0
0
0
0
0
0
0
0
0
0
0
0
0
0
0
0
0
0
0
0
0
0
0
0
0
0
0
0
0
0
0
0
0
0
0
0
0
0
0
0
0
0
0
0
0
0
0
0
0
0
0
0
0
0
0
0
0
0
0
0
0
0
0
0
0
0
0
0
0
0
0
0
0
0
0
0
0
0
0
0
0
0
0
0
0
0
0
0
0
0
0
0
0
0
0
0
0
0
0
0
0
0
0
0
0
0
0
0
0
0
0
0
0
0
0
0
0
0
0
0
0
0
0
0
0
0
0
0
0
0
0
0
0
0
0
0
0
0
0
0
0
0
0
0
0
0
0
0
0
0
0
0
0
0
0
0
0
0
0
0
0
0
0
0
0
0
0
0
0
0
0
0
0
0
0
0
0
0
0
0
0
0
0
0
0
0
0
0
0
0
0
0
0
0
0
$MCA_CAL:
3
-1.4656616 2.9313233 0.00000000000000
$ENER_FIT:
-1.4656616 2.9313233 0.00000000000000
$MCA_CAL_DATA:
3
298 872
597 1749
896 2625
$CAMBIO:
Parent file specification: C:\GADRAS-DRF\Temp\152EU_100.0_50.0_alum_4.18_7.5.pcf
Successful read of spectrum: Yes
Error message: None
Warning: None
Information: None
Neutrons: 0
Number of spectral records in the parent file: 1
Record number of this spectrum in the parent file: 1
Date and time of acquisition read successfully from the original file: Yes
Live time read successfully from the original file: Yes
True time read successfully from the original file: Yes
GADRAS Tag character is:  
Version: 130122
Parent file type: Sandia GADRAS PCF
