$SPEC_ID:
152EU,1uC{82,0.92}
$MEAS_TIM:
3600.00 3600.00
$DATE_MEA:
3/9/2018 5:22:25 PM
$DATA:
0 1193
1296.541
1202.814
1096.129
1027.079
904.049
799.372
706.853
630.203
565.267
507.334
473.157
443.140
414.405
394.550
381.380
370.514
360.656
353.840
352.122
354.126
360.444
370.745
378.374
374.352
366.509
360.660
358.950
357.981
357.033
359.101
364.229
370.613
376.804
381.059
384.958
390.178
400.417
421.007
458.856
512.793
564.839
584.455
559.669
505.952
451.122
419.349
411.028
417.213
430.246
443.808
449.386
447.583
440.794
431.159
423.452
419.708
419.758
422.576
427.725
434.568
441.846
447.933
452.039
454.470
454.882
453.310
450.971
448.528
445.942
442.382
437.539
432.098
426.043
419.277
414.198
414.235
423.453
445.356
482.316
532.297
588.985
641.862
678.444
689.474
669.246
623.716
563.167
499.286
442.841
398.591
368.703
350.936
341.891
338.724
338.914
340.979
343.870
346.944
349.729
351.742
352.451
351.780
350.239
348.765
349.269
354.058
366.821
391.705
433.357
496.759
584.465
695.461
826.331
965.412
1098.616
1209.324
1278.829
1294.273
1256.688
1169.931
1046.645
904.231
758.687
622.586
507.412
416.537
348.286
300.290
268.324
247.898
235.721
229.781
228.215
229.979
234.326
240.457
247.450
254.352
260.381
264.950
267.548
268.314
267.853
266.760
265.651
265.128
265.607
266.734
267.939
268.639
268.101
265.608
260.707
253.611
244.650
234.294
223.385
212.792
203.226
194.986
188.335
183.378
179.876
177.528
176.026
175.077
174.379
173.672
172.845
171.856
170.653
169.274
167.782
166.241
164.721
163.276
161.959
160.814
159.852
159.091
158.536
158.210
158.151
158.372
158.821
159.379
159.924
160.369
160.718
160.998
161.208
161.278
161.088
160.532
159.540
158.176
156.508
154.618
152.557
150.369
148.122
145.853
143.602
141.406
139.310
137.341
135.533
133.931
132.553
131.390
130.406
129.580
128.877
128.322
127.945
127.763
127.785
127.990
128.364
128.878
129.528
130.311
131.239
132.308
133.479
134.721
135.973
137.187
138.300
139.256
139.983
140.423
140.566
140.436
140.040
139.393
138.514
137.390
136.038
134.463
132.760
131.051
129.466
128.140
127.172
126.654
126.671
127.319
128.694
130.921
134.123
138.420
143.882
150.471
158.152
166.869
176.523
186.786
197.289
207.639
217.457
226.312
233.777
239.375
242.678
243.472
241.845
237.931
231.876
223.843
214.224
203.469
192.042
180.378
168.862
157.797
147.488
138.237
130.289
123.667
118.319
114.206
111.279
109.442
108.513
108.315
108.668
109.404
110.382
111.470
112.559
113.516
114.226
114.584
114.498
113.858
112.571
110.650
108.211
105.383
102.284
99.060
95.806
92.653
89.704
87.083
84.887
83.222
82.169
81.810
82.242
83.524
85.661
88.621
92.398
96.962
102.276
108.191
114.575
121.270
128.142
135.001
141.616
147.745
153.116
157.501
160.681
162.603
163.200
162.449
160.290
156.739
151.941
146.110
139.454
132.154
124.433
116.473
108.484
100.646
93.170
86.235
79.944
74.328
69.442
65.322
62.007
59.522
57.853
56.994
56.931
57.661
59.167
61.450
64.496
68.307
72.863
78.173
84.167
90.778
97.949
105.595
113.662
122.014
130.513
138.948
147.169
154.978
162.229
168.755
174.444
179.165
182.762
185.135
186.193
185.990
184.529
181.865
178.021
173.049
167.049
160.206
152.650
144.564
136.081
127.364
118.539
109.714
101.027
92.585
84.524
76.911
69.799
63.225
57.232
51.854
47.132
43.033
39.494
36.455
33.853
31.623
29.705
28.066
26.671
25.494
24.500
23.666
22.954
22.346
21.813
21.330
20.875
20.420
19.952
19.465
18.967
18.456
17.940
17.420
16.901
16.390
15.896
15.426
14.987
14.590
14.239
13.936
13.681
13.476
13.318
13.211
13.150
13.130
13.138
13.165
13.202
13.235
13.259
13.265
13.257
13.230
13.185
13.121
13.037
12.943
12.860
12.806
12.800
12.865
13.019
13.287
13.697
14.283
15.075
16.106
17.406
19.005
20.914
23.142
25.694
28.576
31.799
35.364
39.250
43.403
47.770
52.288
56.911
61.574
66.226
70.770
75.134
79.213
82.918
86.171
88.868
90.970
92.441
93.294
93.486
93.022
91.872
90.047
87.585
84.573
81.086
77.192
72.979
68.511
63.874
59.124
54.337
49.580
44.920
40.422
36.158
32.159
28.438
24.994
21.834
18.962
16.381
14.096
12.093
10.350
8.843
7.551
6.451
5.521
4.736
4.082
3.542
3.101
2.744
2.454
2.218
2.020
1.855
1.716
1.599
1.501
1.415
1.338
1.265
1.194
1.127
1.062
0.998
0.936
0.876
0.816
0.757
0.700
0.644
0.590
0.539
0.490
0.445
0.402
0.362
0.326
0.292
0.262
0.235
0.211
0.190
0.172
0.156
0.143
0.131
0.122
0.113
0.106
0.101
0.096
0.092
0.088
0.085
0.083
0.081
0.079
0.077
0.075
0.074
0.072
0.071
0.070
0.068
0.067
0.066
0.064
0.063
0.062
0.060
0.059
0.057
0.056
0.054
0.053
0.052
0.050
0.049
0.047
0.046
0.045
0.044
0.043
0.042
0.041
0.040
0.040
0.039
0.039
0.038
0.038
0.037
0.037
0.036
0.036
0.035
0.035
0.034
0.034
0.033
0.032
0.031
0.030
0.029
0.028
0.027
0.025
0.024
0.023
0.021
0.020
0.018
0.017
0.016
0.014
0.013
0.012
0.011
0.010
0.009
0.008
0.007
0.006
0.005
0.004
0.004
0.003
0.003
0.002
0.002
0.002
0.001
0.001
0.001
0.001
0.001
0.001
0.000
0.000
0.000
0.000
0.000
0.000
0.000
0.000
0.000
0.000
0.000
0.000
0.000
0.000
0.000
0.000
0.000
0.000
0.000
-0.000
-0.000
-0.000
-0.000
-0.000
-0.000
-0.000
-0.000
0.000
0.000
0.000
0.000
0.000
0.000
0.000
0.000
-0.000
-0.000
-0.000
-0.000
-0.000
-0.000
-0.000
-0.000
-0.000
0.000
0.000
0.000
0.000
0.000
0
0
0
0
0
0
0
0
0
0
0
0
0
0
0
0
0
0
0
0
0
0
0
0
0
0
0
0
0
0
0
0
0
0
0
0
0
0
0
0
0
0
0
0
0
0
0
0
0
0
0
0
0
0
0
0
0
0
0
0
0
0
0
0
0
0
0
0
0
0
0
0
0
0
0
0
0
0
0
0
0
0
0
0
0
0
0
0
0
0
0
0
0
0
0
0
0
0
0
0
0
0
0
0
0
0
0
0
0
0
0
0
0
0
0
0
0
0
0
0
0
0
0
0
0
0
0
0
0
0
0
0
0
0
0
0
0
0
0
0
0
0
0
0
0
0
0
0
0
0
0
0
0
0
0
0
0
0
0
0
0
0
0
0
0
0
0
0
0
0
0
0
0
0
0
0
0
0
0
0
0
0
0
0
0
0
0
0
0
0
0
0
0
0
0
0
0
0
0
0
0
0
0
0
0
0
0
0
0
0
0
0
0
0
0
0
0
0
0
0
0
0
0
0
0
0
0
0
0
0
0
0
0
0
0
0
0
0
0
0
0
0
0
0
0
0
0
0
0
0
0
0
0
0
0
0
0
0
0
0
0
0
0
0
0
0
0
0
0
0
0
0
0
0
0
0
0
0
0
0
0
0
0
0
0
0
0
0
0
0
0
0
0
0
0
0
0
0
0
0
0
0
0
0
0
0
0
0
0
0
0
0
0
0
0
0
0
0
0
0
0
0
0
0
0
0
0
0
0
0
0
0
0
0
0
0
0
0
0
0
0
0
0
0
0
0
0
0
0
0
0
0
0
0
0
0
0
0
0
0
0
0
0
0
0
0
0
0
0
0
0
0
0
0
0
0
0
0
0
0
0
0
0
0
0
0
0
0
0
0
0
0
0
0
0
0
0
0
0
0
0
0
0
0
0
0
0
0
0
0
0
0
0
0
0
0
0
0
0
0
0
0
0
0
0
0
0
0
0
0
0
0
0
0
0
0
0
0
0
0
0
0
0
0
0
0
0
0
0
0
0
0
0
0
0
0
0
0
0
0
0
0
0
0
0
0
0
0
0
0
0
0
0
0
0
0
0
0
0
0
0
0
0
0
0
0
0
0
0
0
0
0
0
0
0
0
0
0
0
0
0
0
0
$MCA_CAL:
3
-1.4656616 2.9313233 0.00000000000000
$ENER_FIT:
-1.4656616 2.9313233 0.00000000000000
$MCA_CAL_DATA:
3
298 872
597 1749
896 2625
$CAMBIO:
Parent file specification: C:\GADRAS-DRF\Temp\152EU_125.0_50.0_lead_0.92_7.0.pcf
Successful read of spectrum: Yes
Error message: None
Warning: None
Information: None
Neutrons: 0
Number of spectral records in the parent file: 1
Record number of this spectrum in the parent file: 1
Date and time of acquisition read successfully from the original file: Yes
Live time read successfully from the original file: Yes
True time read successfully from the original file: Yes
GADRAS Tag character is:  
Version: 130122
Parent file type: Sandia GADRAS PCF
