$SPEC_ID:
152EU,1uC{82,0.51}
$MEAS_TIM:
3600.00 3600.00
$DATE_MEA:
3/9/2018 5:22:25 PM
$DATA:
0 1193
1860.218
1774.519
1636.013
1507.165
1323.713
1163.278
1018.726
899.807
805.564
722.428
677.344
642.972
620.477
613.404
606.229
591.709
562.975
543.035
546.570
562.961
585.739
613.258
630.242
636.415
635.278
640.901
649.235
654.355
649.433
645.091
648.239
657.527
668.255
677.805
689.356
709.340
749.712
830.036
965.323
1141.040
1297.010
1348.553
1259.431
1072.858
874.055
733.767
666.132
652.449
668.912
697.421
723.916
740.994
745.361
735.588
716.316
694.267
674.725
659.828
649.888
644.486
641.414
637.813
633.272
627.971
622.060
616.239
611.491
608.301
606.473
604.638
601.955
598.567
595.071
592.454
592.523
597.724
611.970
639.177
679.928
732.394
788.595
838.253
869.453
871.487
843.225
787.815
715.399
638.618
566.829
507.254
462.612
431.964
413.078
402.221
396.228
393.494
392.676
392.849
393.191
393.132
392.231
390.523
388.810
388.188
391.007
399.999
418.831
452.045
503.723
576.497
672.370
788.784
919.338
1055.637
1182.214
1282.345
1343.690
1358.825
1322.428
1240.853
1125.180
987.383
841.923
703.287
580.671
477.728
397.396
338.242
296.526
268.643
251.541
242.359
238.607
238.951
242.229
247.366
253.480
259.694
265.304
269.864
272.969
274.538
275.016
274.865
274.496
274.191
274.226
274.606
274.816
274.314
272.601
269.387
264.385
257.449
248.971
239.440
229.376
219.325
209.874
201.571
194.657
189.086
184.823
181.743
179.560
177.988
176.749
175.686
174.662
173.556
172.316
170.969
169.537
168.048
166.567
165.155
163.868
162.740
161.780
161.012
160.440
160.081
159.966
160.103
160.455
160.925
161.413
161.827
162.131
162.328
162.400
162.326
162.039
161.479
160.564
159.287
157.707
155.901
153.930
151.835
149.675
147.476
145.281
143.125
141.056
139.103
137.303
135.679
134.232
132.973
131.906
131.041
130.355
129.851
129.529
129.380
129.404
129.599
129.969
130.499
131.178
131.993
132.938
133.984
135.089
136.237
137.386
138.490
139.487
140.324
140.931
141.276
141.367
141.230
140.875
140.314
139.565
138.610
137.461
136.118
134.672
133.248
131.983
131.021
130.474
130.428
130.961
132.162
134.102
136.860
140.507
145.116
150.760
157.432
165.000
173.296
182.168
191.439
200.824
209.933
218.391
225.816
231.887
236.368
239.090
239.882
238.550
235.101
229.799
222.900
214.678
205.401
195.395
184.990
174.534
164.369
154.815
146.044
138.168
131.310
125.576
121.042
117.610
115.148
113.510
112.558
112.157
112.189
112.529
113.050
113.645
114.187
114.568
114.677
114.413
113.660
112.354
110.570
108.402
105.951
103.304
100.581
97.857
95.246
92.836
90.736
89.027
87.804
87.135
87.089
87.750
89.180
91.392
94.330
97.963
102.237
107.118
112.501
118.250
124.192
130.182
136.045
141.625
146.759
151.246
154.932
157.623
159.166
159.490
158.661
156.708
153.693
149.641
144.642
138.869
132.483
125.684
118.637
111.533
104.504
97.692
91.215
85.208
79.786
75.068
71.082
67.845
65.384
63.711
62.850
62.800
63.555
65.092
67.407
70.474
74.290
78.798
83.967
89.724
96.017
102.804
110.003
117.515
125.176
132.884
140.466
147.811
154.759
161.206
166.997
172.023
176.157
179.249
181.235
182.088
181.856
180.526
178.138
174.703
170.272
164.938
158.850
152.103
144.848
137.180
129.238
121.132
112.958
104.843
96.880
89.197
81.873
74.961
68.488
62.486
56.977
52.002
47.575
43.671
40.247
37.259
34.660
32.402
30.447
28.752
27.294
26.036
24.959
24.023
23.207
22.481
21.830
21.241
20.694
20.179
19.675
19.172
18.668
18.168
17.675
17.192
16.725
16.276
15.849
15.447
15.076
14.738
14.438
14.181
13.968
13.795
13.660
13.555
13.478
13.423
13.385
13.361
13.346
13.338
13.333
13.328
13.320
13.306
13.295
13.300
13.332
13.407
13.537
13.734
14.014
14.401
14.920
15.593
16.448
17.507
18.798
20.336
22.131
24.188
26.513
29.110
31.983
35.142
38.567
42.218
46.049
50.017
54.070
58.173
62.270
66.316
70.228
73.956
77.415
80.537
83.264
85.513
87.256
88.467
89.163
89.309
88.918
87.965
86.458
84.402
81.866
78.910
75.585
71.963
68.093
64.048
59.874
55.630
51.366
47.134
42.978
38.958
35.117
31.505
28.125
24.982
22.076
19.407
16.979
14.790
12.843
11.123
9.616
8.303
7.167
6.188
5.351
4.638
4.032
3.523
3.098
2.747
2.457
2.218
2.017
1.844
1.694
1.564
1.452
1.353
1.266
1.186
1.112
1.041
0.974
0.909
0.847
0.787
0.731
0.676
0.624
0.574
0.527
0.482
0.440
0.401
0.364
0.330
0.299
0.271
0.246
0.223
0.202
0.184
0.168
0.153
0.141
0.130
0.121
0.114
0.107
0.101
0.097
0.092
0.089
0.086
0.083
0.080
0.078
0.076
0.075
0.073
0.071
0.070
0.068
0.067
0.065
0.064
0.063
0.061
0.060
0.058
0.057
0.056
0.054
0.053
0.052
0.050
0.049
0.048
0.047
0.046
0.045
0.044
0.043
0.042
0.041
0.041
0.040
0.039
0.039
0.038
0.037
0.037
0.036
0.035
0.035
0.034
0.033
0.032
0.032
0.031
0.030
0.029
0.028
0.026
0.025
0.024
0.023
0.021
0.020
0.019
0.018
0.016
0.015
0.014
0.013
0.012
0.011
0.010
0.009
0.008
0.007
0.006
0.005
0.005
0.004
0.004
0.003
0.003
0.002
0.002
0.002
0.001
0.001
0.001
0.001
0.001
0.001
0.000
0.000
0.000
0.000
0.000
0.000
0.000
0.000
0.000
0.000
0.000
0.000
0.000
0.000
0.000
0.000
0.000
0.000
0.000
0.000
0.000
0.000
0.000
-0.000
-0.000
-0.000
-0.000
-0.000
-0.000
-0.000
-0.000
-0.000
0.000
0.000
0.000
0.000
0.000
0.000
0.000
0.000
0.000
0.000
0.000
0.000
0.000
0.000
0
0
0
0
0
0
0
0
0
0
0
0
0
0
0
0
0
0
0
0
0
0
0
0
0
0
0
0
0
0
0
0
0
0
0
0
0
0
0
0
0
0
0
0
0
0
0
0
0
0
0
0
0
0
0
0
0
0
0
0
0
0
0
0
0
0
0
0
0
0
0
0
0
0
0
0
0
0
0
0
0
0
0
0
0
0
0
0
0
0
0
0
0
0
0
0
0
0
0
0
0
0
0
0
0
0
0
0
0
0
0
0
0
0
0
0
0
0
0
0
0
0
0
0
0
0
0
0
0
0
0
0
0
0
0
0
0
0
0
0
0
0
0
0
0
0
0
0
0
0
0
0
0
0
0
0
0
0
0
0
0
0
0
0
0
0
0
0
0
0
0
0
0
0
0
0
0
0
0
0
0
0
0
0
0
0
0
0
0
0
0
0
0
0
0
0
0
0
0
0
0
0
0
0
0
0
0
0
0
0
0
0
0
0
0
0
0
0
0
0
0
0
0
0
0
0
0
0
0
0
0
0
0
0
0
0
0
0
0
0
0
0
0
0
0
0
0
0
0
0
0
0
0
0
0
0
0
0
0
0
0
0
0
0
0
0
0
0
0
0
0
0
0
0
0
0
0
0
0
0
0
0
0
0
0
0
0
0
0
0
0
0
0
0
0
0
0
0
0
0
0
0
0
0
0
0
0
0
0
0
0
0
0
0
0
0
0
0
0
0
0
0
0
0
0
0
0
0
0
0
0
0
0
0
0
0
0
0
0
0
0
0
0
0
0
0
0
0
0
0
0
0
0
0
0
0
0
0
0
0
0
0
0
0
0
0
0
0
0
0
0
0
0
0
0
0
0
0
0
0
0
0
0
0
0
0
0
0
0
0
0
0
0
0
0
0
0
0
0
0
0
0
0
0
0
0
0
0
0
0
0
0
0
0
0
0
0
0
0
0
0
0
0
0
0
0
0
0
0
0
0
0
0
0
0
0
0
0
0
0
0
0
0
0
0
0
0
0
0
0
0
0
0
0
0
0
0
0
0
0
0
0
0
0
0
0
0
0
0
0
0
0
0
0
0
0
0
0
0
0
0
0
0
0
0
0
0
0
0
0
0
0
0
0
0
0
0
0
0
0
0
0
0
0
$MCA_CAL:
3
-1.4656616 2.9313233 0.00000000000000
$ENER_FIT:
-1.4656616 2.9313233 0.00000000000000
$MCA_CAL_DATA:
3
298 872
597 1749
896 2625
$CAMBIO:
Parent file specification: C:\GADRAS-DRF\Temp\152EU_50.0_50.0_lead_0.51_7.5.pcf
Successful read of spectrum: Yes
Error message: None
Warning: None
Information: None
Neutrons: 0
Number of spectral records in the parent file: 1
Record number of this spectrum in the parent file: 1
Date and time of acquisition read successfully from the original file: Yes
Live time read successfully from the original file: Yes
True time read successfully from the original file: Yes
GADRAS Tag character is:  
Version: 130122
Parent file type: Sandia GADRAS PCF
