$SPEC_ID:
152EU,1uC{82,0.51}
$MEAS_TIM:
3600.00 3600.00
$DATE_MEA:
3/9/2018 5:22:25 PM
$DATA:
0 1193
1368.115
1281.269
1174.758
1080.668
954.205
844.895
743.997
658.111
588.012
526.536
492.937
469.330
455.966
452.794
447.038
431.730
404.331
380.318
370.867
371.443
376.976
384.737
391.294
390.842
388.182
388.288
390.237
394.858
401.917
413.699
429.865
447.077
462.285
474.472
489.007
515.362
566.593
654.487
780.153
922.736
1035.449
1070.486
1004.859
866.805
707.214
574.229
489.313
449.371
438.197
437.981
439.176
439.207
436.839
432.543
428.918
427.638
429.366
433.546
439.317
446.086
452.960
458.611
462.405
464.433
464.582
462.630
459.408
456.299
453.217
449.332
444.880
440.756
438.098
438.235
443.234
455.777
477.786
510.057
551.801
598.819
645.981
686.016
711.397
717.794
702.946
668.199
620.131
565.612
511.083
462.672
423.562
394.376
375.045
363.658
357.967
356.123
356.570
357.984
359.777
361.586
363.435
365.914
369.763
376.678
388.935
408.878
439.223
482.786
541.418
615.100
703.459
803.395
908.164
1010.837
1102.914
1174.647
1216.530
1224.763
1199.800
1142.452
1058.303
956.144
844.871
732.200
625.035
530.053
450.528
386.251
336.814
301.056
276.615
261.060
252.168
248.395
248.278
250.434
253.972
258.152
262.259
265.892
268.920
271.207
272.717
273.578
273.966
274.020
273.719
272.968
271.651
269.656
266.804
262.947
257.938
251.845
244.881
237.238
229.163
220.982
213.060
205.737
199.235
193.577
188.793
184.902
181.803
179.342
177.348
175.677
174.220
172.901
171.630
170.352
169.073
167.817
166.620
165.505
164.474
163.534
162.686
161.949
161.347
160.913
160.692
160.689
160.842
161.069
161.289
161.431
161.468
161.402
161.214
160.898
160.425
159.769
158.887
157.748
156.356
154.767
153.025
151.170
149.265
147.326
145.386
143.467
141.608
139.827
138.154
136.624
135.259
134.077
133.072
132.248
131.584
131.083
130.749
130.575
130.565
130.716
131.033
131.490
132.072
132.757
133.534
134.374
135.234
136.100
136.927
137.687
138.351
138.903
139.312
139.557
139.617
139.509
139.239
138.819
138.277
137.618
136.904
136.184
135.521
134.963
134.576
134.460
134.705
135.412
136.674
138.579
141.137
144.364
148.269
152.863
158.135
163.980
170.291
176.939
183.809
190.764
197.608
204.091
209.980
215.033
219.038
221.843
223.412
223.707
222.666
220.242
216.486
211.558
205.650
198.943
191.636
183.905
175.955
167.990
160.215
152.835
146.048
139.966
134.577
129.878
125.858
122.519
119.835
117.739
116.143
114.969
114.127
113.526
113.093
112.733
112.362
111.891
111.242
110.325
109.138
107.738
106.168
104.483
102.724
100.966
99.249
97.662
96.264
95.135
94.332
93.930
93.957
94.431
95.392
96.853
98.853
101.378
104.383
107.782
111.514
115.489
119.650
123.900
128.132
132.205
136.002
139.406
142.272
144.513
146.071
146.932
147.047
146.407
144.969
142.732
139.750
136.131
131.982
127.383
122.453
117.279
111.979
106.647
101.408
96.363
91.631
87.308
83.491
80.217
77.518
75.442
74.020
73.296
73.292
74.004
75.394
77.448
80.126
83.415
87.270
91.667
96.514
101.740
107.283
113.053
118.995
125.005
131.017
136.883
142.517
147.784
152.597
156.818
160.379
163.246
165.367
166.740
167.307
167.066
165.962
164.032
161.331
157.929
153.871
149.246
144.092
138.500
132.519
126.248
119.766
113.139
106.467
99.812
93.269
86.877
80.690
74.748
69.097
63.772
58.827
54.292
50.163
46.420
43.038
39.994
37.260
34.819
32.640
30.707
28.991
27.478
26.139
24.957
23.906
22.964
22.120
21.357
20.670
20.044
19.471
18.937
18.436
17.956
17.501
17.070
16.663
16.281
15.923
15.593
15.286
15.006
14.752
14.525
14.321
14.145
13.993
13.867
13.765
13.690
13.641
13.616
13.617
13.644
13.697
13.777
13.893
14.055
14.273
14.554
14.912
15.352
15.886
16.525
17.282
18.170
19.199
20.386
21.739
23.274
25.001
26.917
29.015
31.285
33.717
36.301
39.033
41.898
44.886
47.962
51.089
54.223
57.334
60.372
63.310
66.095
68.709
71.105
73.253
75.133
76.701
77.939
78.800
79.277
79.329
78.986
78.254
77.166
75.729
73.971
71.913
69.564
66.960
64.127
61.116
57.956
54.695
51.371
48.025
44.690
41.412
38.204
35.088
32.074
29.183
26.430
23.828
21.397
19.148
17.084
15.195
13.475
11.915
10.508
9.245
8.119
7.121
6.242
5.474
4.806
4.227
3.729
3.300
2.932
2.613
2.335
2.094
1.884
1.704
1.548
1.413
1.296
1.193
1.101
1.016
0.939
0.868
0.804
0.744
0.689
0.638
0.591
0.546
0.504
0.464
0.427
0.392
0.360
0.329
0.302
0.276
0.253
0.232
0.213
0.195
0.180
0.166
0.154
0.142
0.133
0.124
0.116
0.109
0.103
0.098
0.093
0.089
0.085
0.082
0.079
0.077
0.074
0.072
0.070
0.068
0.066
0.065
0.063
0.062
0.060
0.059
0.057
0.056
0.055
0.053
0.052
0.051
0.050
0.049
0.048
0.047
0.046
0.045
0.044
0.043
0.042
0.041
0.040
0.040
0.039
0.038
0.037
0.036
0.036
0.035
0.034
0.033
0.032
0.031
0.030
0.029
0.028
0.027
0.026
0.025
0.024
0.023
0.022
0.021
0.020
0.019
0.018
0.017
0.016
0.015
0.014
0.013
0.012
0.011
0.010
0.009
0.008
0.008
0.007
0.006
0.006
0.005
0.005
0.004
0.004
0.003
0.003
0.002
0.002
0.002
0.002
0.001
0.001
0.001
0.001
0.001
0.001
0.001
0.000
0.000
0.000
0.000
0.000
0.000
0.000
0.000
0.000
0.000
0.000
0.000
0.000
0.000
0.000
0.000
0.000
0.000
0.000
0.000
0.000
0.000
0.000
0.000
0.000
0.000
0.000
0.000
0.000
0.000
-0.000
-0.000
-0.000
-0.000
-0.000
-0.000
-0.000
-0.000
-0.000
-0.000
0.000
0.000
0.000
0.000
0.000
0.000
0.000
0.000
0.000
0.000
0.000
-0.000
-0.000
-0.000
-0.000
-0.000
-0.000
-0.000
-0.000
-0.000
-0.000
0.000
0.000
0.000
0.000
0.000
0.000
0
0
0
0
0
0
0
0
0
0
0
0
0
0
0
0
0
0
0
0
0
0
0
0
0
0
0
0
0
0
0
0
0
0
0
0
0
0
0
0
0
0
0
0
0
0
0
0
0
0
0
0
0
0
0
0
0
0
0
0
0
0
0
0
0
0
0
0
0
0
0
0
0
0
0
0
0
0
0
0
0
0
0
0
0
0
0
0
0
0
0
0
0
0
0
0
0
0
0
0
0
0
0
0
0
0
0
0
0
0
0
0
0
0
0
0
0
0
0
0
0
0
0
0
0
0
0
0
0
0
0
0
0
0
0
0
0
0
0
0
0
0
0
0
0
0
0
0
0
0
0
0
0
0
0
0
0
0
0
0
0
0
0
0
0
0
0
0
0
0
0
0
0
0
0
0
0
0
0
0
0
0
0
0
0
0
0
0
0
0
0
0
0
0
0
0
0
0
0
0
0
0
0
0
0
0
0
0
0
0
0
0
0
0
0
0
0
0
0
0
0
0
0
0
0
0
0
0
0
0
0
0
0
0
0
0
0
0
0
0
0
0
0
0
0
0
0
0
0
0
0
0
0
0
0
0
0
0
0
0
0
0
0
0
0
0
0
0
0
0
0
0
0
0
0
0
0
0
0
0
0
0
0
0
0
0
0
0
0
0
0
0
0
0
0
0
0
0
0
0
0
0
0
0
0
0
0
0
0
0
0
0
0
0
0
0
0
0
0
0
0
0
0
0
0
0
0
0
0
0
0
0
0
0
0
0
0
0
0
0
0
0
0
0
0
0
0
0
0
0
0
0
0
0
0
0
0
0
0
0
0
0
0
0
0
0
0
0
0
0
0
0
0
0
0
0
0
0
0
0
0
0
0
0
0
0
0
0
0
0
0
0
0
0
0
0
0
0
0
0
0
0
0
0
0
0
0
0
0
0
0
0
0
0
0
0
0
0
0
0
0
0
0
0
0
0
0
0
0
0
0
0
0
0
0
0
0
0
0
0
0
0
0
0
0
0
0
0
0
0
0
0
0
0
0
0
0
0
0
0
0
0
0
0
0
0
0
0
0
0
0
0
0
0
0
0
0
0
$MCA_CAL:
3
-1.4656616 2.9313233 0.00000000000000
$ENER_FIT:
-1.4656616 2.9313233 0.00000000000000
$MCA_CAL_DATA:
3
298 872
597 1749
896 2625
$CAMBIO:
Parent file specification: C:\GADRAS-DRF\Temp\152EU_150.0_50.0_lead_0.51_8.5.pcf
Successful read of spectrum: Yes
Error message: None
Warning: None
Information: None
Neutrons: 0
Number of spectral records in the parent file: 1
Record number of this spectrum in the parent file: 1
Date and time of acquisition read successfully from the original file: Yes
Live time read successfully from the original file: Yes
True time read successfully from the original file: Yes
GADRAS Tag character is:  
Version: 130122
Parent file type: Sandia GADRAS PCF
