$SPEC_ID:
152EU,1uC{13,1.82}
$MEAS_TIM:
3600.00 3600.00
$DATE_MEA:
3/9/2018 5:22:25 PM
$DATA:
0 1193
1945.900
2103.005
2427.922
3553.154
2882.652
1952.904
1558.130
1189.608
1155.914
1210.756
1742.469
3721.300
8896.300
12639.194
8819.918
4733.649
2401.286
1112.437
803.858
822.076
887.563
964.138
1036.451
1090.570
1164.526
1263.209
1360.771
1413.840
1420.446
1413.717
1432.340
1474.294
1514.185
1539.897
1572.807
1632.715
1762.678
2051.745
2582.995
3351.546
4078.440
4291.908
3797.665
2844.109
1880.636
1243.816
933.692
832.102
828.908
856.537
885.478
905.610
910.916
898.561
875.874
850.698
828.784
812.996
803.096
797.407
793.550
789.000
782.617
775.018
766.453
757.613
750.272
744.926
740.914
736.966
732.326
727.169
721.395
714.992
709.810
709.416
720.338
747.861
794.603
857.840
929.600
995.093
1036.326
1040.735
1001.117
926.475
831.717
733.198
645.831
576.109
526.931
495.193
476.198
465.864
460.541
458.242
457.648
457.853
458.116
457.732
455.979
452.724
448.593
444.621
442.790
445.507
456.785
481.177
523.847
590.368
683.495
801.844
941.470
1089.838
1231.837
1349.227
1421.206
1433.638
1388.243
1289.854
1152.245
994.011
832.442
681.577
554.294
454.162
378.963
325.829
290.215
267.348
253.639
246.768
244.586
245.932
250.010
255.967
262.837
269.618
275.487
279.827
282.101
282.450
281.509
279.901
278.273
277.257
277.290
278.012
278.838
279.171
278.270
275.416
270.152
262.700
253.398
242.721
231.504
220.609
210.747
202.225
195.319
190.140
186.444
183.924
182.265
181.172
180.336
179.496
178.539
177.424
176.102
174.607
173.002
171.350
169.719
168.165
166.738
165.482
164.410
163.542
162.883
162.455
162.291
162.401
162.735
163.177
163.611
163.953
164.202
164.383
164.491
164.460
164.175
163.534
162.474
161.056
159.350
157.437
155.364
153.170
150.921
148.649
146.394
144.191
142.085
140.103
138.279
136.653
135.244
134.043
133.016
132.145
131.394
130.790
130.360
130.118
130.075
130.209
130.506
130.939
131.500
132.190
133.019
133.982
135.043
136.170
137.305
138.402
139.400
140.250
140.880
141.239
141.316
141.133
140.695
140.015
139.113
137.976
136.621
135.053
133.364
131.671
130.097
128.775
127.795
127.244
127.201
127.757
129.002
131.057
134.040
138.071
143.216
149.441
156.710
164.972
174.133
183.874
193.842
203.656
212.951
221.317
228.349
233.594
236.645
237.301
235.648
231.813
225.938
218.179
208.911
198.560
187.568
176.351
165.273
154.630
144.714
135.815
128.169
121.797
116.647
112.680
109.848
108.056
107.132
106.907
107.210
107.881
108.785
109.796
110.808
111.694
112.343
112.655
112.542
111.902
110.644
108.782
106.426
103.701
100.717
97.617
94.489
91.458
88.622
86.099
83.981
82.369
81.342
80.976
81.367
82.569
84.586
87.387
90.962
95.284
100.315
105.914
111.959
118.299
124.809
131.308
137.576
143.382
148.464
152.603
155.592
157.380
157.904
157.145
155.044
151.620
147.011
141.418
135.041
128.052
120.662
113.047
105.406
97.911
90.765
84.136
78.125
72.758
68.088
64.148
60.974
58.590
56.982
56.148
56.073
56.754
58.176
60.341
63.230
66.848
71.172
76.211
81.898
88.170
94.973
102.228
109.885
117.812
125.880
133.886
141.688
149.095
155.970
162.153
167.537
171.999
175.392
177.620
178.596
178.372
176.949
174.378
170.681
165.906
160.151
153.592
146.355
138.616
130.501
122.170
113.740
105.312
97.019
88.959
81.262
73.992
67.199
60.920
55.195
50.058
45.549
41.634
38.255
35.354
32.869
30.741
28.908
27.341
26.006
24.880
23.927
23.127
22.445
21.861
21.349
20.885
20.448
20.011
19.561
19.092
18.613
18.122
17.626
17.126
16.628
16.138
15.664
15.213
14.792
14.410
14.072
13.780
13.534
13.335
13.181
13.075
13.014
12.992
12.997
13.021
13.053
13.082
13.101
13.104
13.093
13.064
13.018
12.953
12.871
12.778
12.695
12.641
12.634
12.693
12.838
13.092
13.482
14.040
14.795
15.779
17.018
18.543
20.365
22.490
24.924
27.673
30.746
34.146
37.851
41.811
45.975
50.283
54.691
59.139
63.576
67.909
72.071
75.960
79.493
82.591
85.159
87.157
88.551
89.354
89.526
89.071
87.960
86.204
83.840
80.950
77.608
73.876
69.840
65.560
61.119
56.571
51.989
47.435
42.975
38.670
34.590
30.765
27.206
23.911
20.889
18.143
15.675
13.489
11.573
9.905
8.464
7.228
6.175
5.284
4.534
3.908
3.392
2.970
2.628
2.352
2.126
1.937
1.778
1.645
1.534
1.439
1.357
1.282
1.212
1.145
1.080
1.018
0.957
0.898
0.839
0.782
0.726
0.671
0.617
0.566
0.517
0.470
0.426
0.385
0.347
0.312
0.280
0.251
0.225
0.203
0.182
0.165
0.150
0.137
0.126
0.117
0.109
0.102
0.097
0.092
0.088
0.085
0.082
0.080
0.077
0.076
0.074
0.072
0.071
0.070
0.068
0.067
0.066
0.065
0.063
0.062
0.061
0.059
0.058
0.057
0.055
0.054
0.052
0.051
0.050
0.048
0.047
0.046
0.045
0.043
0.042
0.041
0.040
0.040
0.039
0.038
0.038
0.037
0.037
0.036
0.036
0.035
0.035
0.035
0.034
0.034
0.033
0.032
0.032
0.031
0.030
0.029
0.028
0.027
0.026
0.024
0.023
0.022
0.020
0.019
0.018
0.016
0.015
0.014
0.013
0.011
0.010
0.009
0.008
0.007
0.006
0.006
0.005
0.004
0.004
0.003
0.003
0.002
0.002
0.002
0.001
0.001
0.001
0.001
0.001
0.001
0.000
0.000
0.000
0.000
0.000
0.000
0.000
0.000
0.000
0.000
0.000
0.000
0.000
0.000
0.000
0.000
0.000
0.000
0.000
-0.000
-0.000
-0.000
-0.000
-0.000
-0.000
-0.000
-0.000
0.000
0.000
0.000
0.000
0.000
0.000
0.000
0.000
-0.000
-0.000
-0.000
-0.000
-0.000
-0.000
-0.000
-0.000
-0.000
0.000
0.000
0.000
0.000
0.000
0
0
0
0
0
0
0
0
0
0
0
0
0
0
0
0
0
0
0
0
0
0
0
0
0
0
0
0
0
0
0
0
0
0
0
0
0
0
0
0
0
0
0
0
0
0
0
0
0
0
0
0
0
0
0
0
0
0
0
0
0
0
0
0
0
0
0
0
0
0
0
0
0
0
0
0
0
0
0
0
0
0
0
0
0
0
0
0
0
0
0
0
0
0
0
0
0
0
0
0
0
0
0
0
0
0
0
0
0
0
0
0
0
0
0
0
0
0
0
0
0
0
0
0
0
0
0
0
0
0
0
0
0
0
0
0
0
0
0
0
0
0
0
0
0
0
0
0
0
0
0
0
0
0
0
0
0
0
0
0
0
0
0
0
0
0
0
0
0
0
0
0
0
0
0
0
0
0
0
0
0
0
0
0
0
0
0
0
0
0
0
0
0
0
0
0
0
0
0
0
0
0
0
0
0
0
0
0
0
0
0
0
0
0
0
0
0
0
0
0
0
0
0
0
0
0
0
0
0
0
0
0
0
0
0
0
0
0
0
0
0
0
0
0
0
0
0
0
0
0
0
0
0
0
0
0
0
0
0
0
0
0
0
0
0
0
0
0
0
0
0
0
0
0
0
0
0
0
0
0
0
0
0
0
0
0
0
0
0
0
0
0
0
0
0
0
0
0
0
0
0
0
0
0
0
0
0
0
0
0
0
0
0
0
0
0
0
0
0
0
0
0
0
0
0
0
0
0
0
0
0
0
0
0
0
0
0
0
0
0
0
0
0
0
0
0
0
0
0
0
0
0
0
0
0
0
0
0
0
0
0
0
0
0
0
0
0
0
0
0
0
0
0
0
0
0
0
0
0
0
0
0
0
0
0
0
0
0
0
0
0
0
0
0
0
0
0
0
0
0
0
0
0
0
0
0
0
0
0
0
0
0
0
0
0
0
0
0
0
0
0
0
0
0
0
0
0
0
0
0
0
0
0
0
0
0
0
0
0
0
0
0
0
0
0
0
0
0
0
0
0
0
0
0
0
0
0
0
0
0
0
0
0
0
0
0
0
0
0
0
0
0
0
0
0
0
0
0
0
0
0
0
0
0
0
0
0
0
0
0
0
0
0
0
0
0
0
0
0
0
0
0
0
$MCA_CAL:
3
-1.4656616 2.9313233 0.00000000000000
$ENER_FIT:
-1.4656616 2.9313233 0.00000000000000
$MCA_CAL_DATA:
3
298 872
597 1749
896 2625
$CAMBIO:
Parent file specification: C:\GADRAS-DRF\Temp\152EU_50.0_50.0_alum_1.82_7.0.pcf
Successful read of spectrum: Yes
Error message: None
Warning: None
Information: None
Neutrons: 0
Number of spectral records in the parent file: 1
Record number of this spectrum in the parent file: 1
Date and time of acquisition read successfully from the original file: Yes
Live time read successfully from the original file: Yes
True time read successfully from the original file: Yes
GADRAS Tag character is:  
Version: 130122
Parent file type: Sandia GADRAS PCF
