$SPEC_ID:
152EU,1uC{13,7.49}
$MEAS_TIM:
3600.00 3600.00
$DATE_MEA:
3/9/2018 5:22:25 PM
$DATA:
0 1193
906.931
884.787
856.418
1267.301
1178.273
1000.924
855.410
729.890
650.147
591.486
595.953
698.476
918.813
1094.123
1063.722
939.747
821.654
775.030
799.864
871.812
948.741
1029.620
1100.996
1149.577
1204.541
1259.349
1306.347
1347.546
1388.362
1426.303
1463.237
1504.519
1536.314
1552.622
1573.849
1617.130
1709.153
1849.214
2011.757
2183.545
2299.993
2283.100
2097.874
1802.751
1488.065
1221.922
1033.871
924.575
872.608
853.310
844.642
837.733
830.416
821.131
809.958
799.691
791.709
785.472
780.576
776.808
773.448
769.622
765.230
760.524
755.297
749.128
742.158
734.871
727.336
719.350
710.811
701.700
692.471
684.344
678.707
677.159
681.167
690.520
704.228
720.204
735.151
745.730
748.793
741.424
723.664
697.578
665.495
630.276
594.857
561.717
533.045
510.473
493.648
481.766
473.881
468.878
465.628
463.462
461.930
460.711
459.875
459.643
460.508
463.686
470.568
482.140
498.650
520.275
547.338
580.512
620.428
665.998
713.194
757.823
795.693
822.841
835.257
830.504
809.838
775.012
728.205
672.751
612.369
550.665
490.854
435.887
388.665
350.258
319.792
296.334
278.918
266.599
258.398
253.386
250.779
249.878
250.006
250.594
251.338
251.959
252.212
252.042
251.546
250.800
249.875
248.735
247.339
245.649
243.610
241.179
238.286
234.899
231.032
226.736
222.083
217.130
212.015
206.876
201.869
197.123
192.726
188.732
185.212
182.207
179.648
177.457
175.541
173.832
172.274
170.833
169.461
168.131
166.833
165.565
164.338
163.155
162.021
160.952
159.955
159.052
158.238
157.507
156.866
156.299
155.800
155.345
154.907
154.462
153.980
153.450
152.838
152.126
151.289
150.331
149.257
148.086
146.832
145.520
144.154
142.735
141.291
139.821
138.340
136.867
135.432
134.046
132.732
131.509
130.371
129.325
128.371
127.523
126.770
126.123
125.591
125.171
124.865
124.660
124.548
124.509
124.530
124.594
124.699
124.827
124.961
125.103
125.232
125.333
125.385
125.378
125.287
125.102
124.826
124.479
124.064
123.591
123.085
122.548
122.016
121.506
121.049
120.662
120.385
120.276
120.378
120.745
121.424
122.455
123.829
125.550
127.615
130.023
132.764
135.775
138.994
142.341
145.747
149.136
152.425
155.487
158.208
160.467
162.159
163.166
163.480
163.120
162.084
160.382
158.034
155.071
151.585
147.669
143.427
138.943
134.316
129.640
125.009
120.519
116.261
112.336
108.823
105.730
103.027
100.693
98.692
96.998
95.578
94.398
93.409
92.562
91.822
91.140
90.475
89.802
89.110
88.375
87.579
86.710
85.751
84.729
83.674
82.642
81.651
80.752
79.974
79.357
78.917
78.693
78.708
78.984
79.557
80.422
81.559
82.933
84.529
86.311
88.264
90.338
92.489
94.647
96.759
98.754
100.576
102.172
103.485
104.495
105.155
105.442
105.305
104.724
103.680
102.224
100.388
98.224
95.780
93.089
90.210
87.190
84.102
80.997
77.950
75.017
72.270
69.755
67.516
65.578
63.965
62.714
61.847
61.397
61.374
61.771
62.563
63.745
65.289
67.191
69.421
71.968
74.771
77.785
80.972
84.272
87.653
91.049
94.431
97.713
100.850
103.764
106.409
108.707
110.607
112.074
113.086
113.659
113.769
113.431
112.623
111.353
109.628
107.487
104.952
102.080
98.891
95.439
91.745
87.861
83.832
79.695
75.511
71.314
67.165
63.098
59.167
55.394
51.789
48.357
45.116
42.071
39.230
36.609
34.207
32.016
30.019
28.211
26.574
25.102
23.777
22.595
21.536
20.594
19.753
19.002
18.331
17.725
17.176
16.670
16.205
15.775
15.381
15.015
14.676
14.361
14.066
13.788
13.527
13.286
13.061
12.855
12.666
12.496
12.343
12.209
12.093
11.996
11.918
11.859
11.822
11.803
11.807
11.833
11.889
11.976
12.101
12.267
12.479
12.741
13.058
13.435
13.879
14.398
14.998
15.686
16.467
17.351
18.342
19.443
20.646
21.950
23.349
24.841
26.418
28.076
29.814
31.617
33.468
35.347
37.235
39.108
40.951
42.738
44.455
46.074
47.589
48.969
50.199
51.265
52.140
52.815
53.259
53.471
53.434
53.168
52.674
51.973
51.066
49.970
48.694
47.243
45.638
43.891
42.032
40.076
38.048
35.970
33.865
31.749
29.650
27.580
25.553
23.575
21.659
19.816
18.052
16.382
14.812
13.355
12.007
10.767
9.629
8.589
7.642
6.784
6.010
5.316
4.696
4.147
3.661
3.234
2.861
2.535
2.252
2.005
1.789
1.600
1.434
1.289
1.164
1.054
0.960
0.877
0.805
0.740
0.681
0.627
0.577
0.532
0.491
0.453
0.419
0.387
0.357
0.330
0.304
0.280
0.258
0.237
0.218
0.201
0.185
0.170
0.157
0.145
0.134
0.124
0.115
0.107
0.100
0.093
0.087
0.082
0.078
0.074
0.070
0.067
0.064
0.061
0.059
0.057
0.055
0.053
0.051
0.050
0.048
0.047
0.046
0.045
0.044
0.043
0.042
0.041
0.040
0.039
0.038
0.037
0.036
0.035
0.035
0.034
0.033
0.032
0.032
0.031
0.030
0.030
0.029
0.028
0.028
0.027
0.027
0.026
0.025
0.025
0.024
0.023
0.023
0.022
0.021
0.021
0.020
0.019
0.018
0.018
0.017
0.016
0.015
0.015
0.014
0.013
0.012
0.012
0.011
0.010
0.010
0.009
0.008
0.008
0.007
0.007
0.006
0.006
0.005
0.005
0.004
0.004
0.003
0.003
0.003
0.002
0.002
0.002
0.002
0.001
0.001
0.001
0.001
0.001
0.001
0.001
0.001
0.000
0.000
0.000
0.000
0.000
0.000
0.000
0.000
0.000
0.000
0.000
0.000
0.000
0.000
0.000
0.000
0.000
0.000
0.000
0.000
0.000
0.000
0.000
0.000
0.000
0.000
0.000
0.000
0.000
0.000
0.000
0.000
-0.000
-0.000
-0.000
-0.000
-0.000
-0.000
-0.000
-0.000
-0.000
-0.000
-0.000
0.000
0.000
0.000
0.000
0.000
0.000
0.000
0.000
0.000
0.000
0.000
-0.000
-0.000
-0.000
-0.000
-0.000
-0.000
-0.000
-0.000
-0.000
-0.000
-0.000
0.000
0.000
0.000
0.000
0.000
0.000
0
0
0
0
0
0
0
0
0
0
0
0
0
0
0
0
0
0
0
0
0
0
0
0
0
0
0
0
0
0
0
0
0
0
0
0
0
0
0
0
0
0
0
0
0
0
0
0
0
0
0
0
0
0
0
0
0
0
0
0
0
0
0
0
0
0
0
0
0
0
0
0
0
0
0
0
0
0
0
0
0
0
0
0
0
0
0
0
0
0
0
0
0
0
0
0
0
0
0
0
0
0
0
0
0
0
0
0
0
0
0
0
0
0
0
0
0
0
0
0
0
0
0
0
0
0
0
0
0
0
0
0
0
0
0
0
0
0
0
0
0
0
0
0
0
0
0
0
0
0
0
0
0
0
0
0
0
0
0
0
0
0
0
0
0
0
0
0
0
0
0
0
0
0
0
0
0
0
0
0
0
0
0
0
0
0
0
0
0
0
0
0
0
0
0
0
0
0
0
0
0
0
0
0
0
0
0
0
0
0
0
0
0
0
0
0
0
0
0
0
0
0
0
0
0
0
0
0
0
0
0
0
0
0
0
0
0
0
0
0
0
0
0
0
0
0
0
0
0
0
0
0
0
0
0
0
0
0
0
0
0
0
0
0
0
0
0
0
0
0
0
0
0
0
0
0
0
0
0
0
0
0
0
0
0
0
0
0
0
0
0
0
0
0
0
0
0
0
0
0
0
0
0
0
0
0
0
0
0
0
0
0
0
0
0
0
0
0
0
0
0
0
0
0
0
0
0
0
0
0
0
0
0
0
0
0
0
0
0
0
0
0
0
0
0
0
0
0
0
0
0
0
0
0
0
0
0
0
0
0
0
0
0
0
0
0
0
0
0
0
0
0
0
0
0
0
0
0
0
0
0
0
0
0
0
0
0
0
0
0
0
0
0
0
0
0
0
0
0
0
0
0
0
0
0
0
0
0
0
0
0
0
0
0
0
0
0
0
0
0
0
0
0
0
0
0
0
0
0
0
0
0
0
0
0
0
0
0
0
0
0
0
0
0
0
0
0
0
0
0
0
0
0
0
0
0
0
0
0
0
0
0
0
0
0
0
0
0
0
0
0
0
0
0
$MCA_CAL:
3
-1.4656616 2.9313233 0.00000000000000
$ENER_FIT:
-1.4656616 2.9313233 0.00000000000000
$MCA_CAL_DATA:
3
298 872
597 1749
896 2625
$CAMBIO:
Parent file specification: C:\GADRAS-DRF\Temp\152EU_100.0_50.0_alum_7.49_9.0.pcf
Successful read of spectrum: Yes
Error message: None
Warning: None
Information: None
Neutrons: 0
Number of spectral records in the parent file: 1
Record number of this spectrum in the parent file: 1
Date and time of acquisition read successfully from the original file: Yes
Live time read successfully from the original file: Yes
True time read successfully from the original file: Yes
GADRAS Tag character is:  
Version: 130122
Parent file type: Sandia GADRAS PCF
