$SPEC_ID:
152EU,1uC{82,0.51}
$MEAS_TIM:
3600.00 3600.00
$DATE_MEA:
3/9/2018 5:22:25 PM
$DATA:
0 1193
1408.604
1321.824
1210.929
1107.766
981.142
867.114
763.010
674.979
603.769
541.673
507.132
482.767
469.490
466.493
459.882
443.835
414.155
389.073
382.154
385.393
393.967
405.610
411.336
411.772
408.143
408.422
411.345
414.930
420.072
430.321
446.195
463.732
478.578
489.567
501.538
523.445
569.455
655.356
788.367
948.646
1083.153
1125.187
1050.954
891.624
712.006
573.470
492.973
461.225
458.246
463.849
467.174
467.076
462.681
455.232
448.546
444.939
445.236
448.555
454.067
461.112
468.246
474.102
478.290
480.572
480.743
479.169
476.657
473.596
470.077
466.091
461.613
456.675
451.691
448.599
449.923
458.856
478.440
510.078
553.938
605.763
659.446
706.246
736.515
744.277
726.362
685.023
628.793
566.316
505.755
454.208
414.039
385.992
368.755
359.514
355.726
355.465
356.961
359.182
361.350
363.048
364.258
365.172
366.864
370.684
378.725
394.049
419.819
459.315
515.834
591.362
684.483
793.167
911.380
1029.147
1136.120
1221.439
1273.851
1284.596
1254.713
1187.661
1089.334
970.876
844.298
719.701
604.243
504.656
424.240
361.755
315.608
283.645
262.973
250.703
244.549
243.040
244.741
248.442
253.288
258.436
263.224
267.326
270.471
272.485
273.596
274.086
274.238
274.164
273.931
273.598
272.966
271.668
269.301
265.623
260.607
254.251
246.622
238.079
229.106
220.167
211.656
203.848
197.030
191.404
186.901
183.370
180.647
178.574
176.956
175.617
174.376
173.164
171.931
170.645
169.288
167.904
166.560
165.311
164.183
163.177
162.288
161.527
160.911
160.484
160.298
160.371
160.639
161.000
161.354
161.616
161.766
161.811
161.740
161.544
161.170
160.572
159.683
158.473
156.986
155.291
153.443
151.488
149.478
147.426
145.361
143.311
141.323
139.433
137.685
136.129
134.761
133.573
132.548
131.684
130.966
130.418
130.059
129.900
129.946
130.174
130.567
131.093
131.729
132.461
133.287
134.193
135.162
136.183
137.189
138.128
138.941
139.585
140.040
140.308
140.386
140.282
139.989
139.513
138.868
138.042
137.057
135.974
134.898
133.918
133.133
132.645
132.538
132.903
133.827
135.408
137.706
140.759
144.601
149.263
154.775
161.076
168.037
175.501
183.328
191.361
199.374
207.056
214.109
220.229
225.144
228.664
230.713
231.215
230.069
227.205
222.754
216.934
209.977
202.112
193.583
184.627
175.510
166.495
157.843
149.813
142.549
136.098
130.483
125.741
121.902
118.951
116.771
115.245
114.251
113.678
113.405
113.316
113.321
113.307
113.169
112.808
112.190
111.306
110.150
108.726
107.024
105.076
102.957
100.775
98.596
96.524
94.637
93.026
91.758
90.926
90.604
90.865
91.767
93.288
95.423
98.141
101.440
105.287
109.612
114.280
119.189
124.208
129.232
134.122
138.741
142.952
146.585
149.513
151.575
152.694
152.855
152.099
150.426
147.870
144.431
140.195
135.306
129.883
124.086
118.039
111.893
105.759
99.765
94.016
88.637
83.728
79.413
75.748
72.755
70.469
68.906
68.097
68.060
68.799
70.278
72.486
75.384
78.959
83.170
87.991
93.328
99.112
105.279
111.738
118.435
125.250
132.091
138.790
145.244
151.298
156.846
161.745
165.941
169.373
171.956
173.657
174.383
174.110
172.832
170.638
167.588
163.755
159.186
153.975
148.172
141.891
135.197
128.197
120.982
113.625
106.236
98.881
91.663
84.650
77.938
71.609
65.747
60.391
55.527
51.119
47.139
43.560
40.354
37.490
34.940
32.684
30.694
28.950
27.423
26.095
24.935
23.928
23.047
22.271
21.581
20.951
20.365
19.801
19.262
18.742
18.245
17.768
17.311
16.873
16.456
16.060
15.688
15.343
15.026
14.740
14.487
14.267
14.078
13.918
13.783
13.672
13.583
13.512
13.460
13.424
13.406
13.405
13.422
13.454
13.505
13.577
13.684
13.838
14.054
14.345
14.723
15.204
15.800
16.530
17.409
18.457
19.687
21.122
22.773
24.659
26.776
29.115
31.664
34.413
37.357
40.481
43.778
47.218
50.754
54.333
57.915
61.443
64.878
68.159
71.259
74.118
76.696
78.961
80.856
82.355
83.396
83.965
84.032
83.636
82.783
81.508
79.820
77.748
75.314
72.535
69.469
66.158
62.661
59.021
55.295
51.533
47.786
44.088
40.472
36.955
33.565
30.321
27.250
24.375
21.716
19.280
17.054
15.033
13.206
11.564
10.099
8.802
7.662
6.669
5.808
5.066
4.432
3.891
3.430
3.036
2.697
2.406
2.158
1.947
1.768
1.616
1.486
1.371
1.269
1.176
1.092
1.015
0.945
0.880
0.820
0.763
0.708
0.656
0.606
0.559
0.514
0.471
0.431
0.394
0.360
0.329
0.300
0.273
0.249
0.228
0.208
0.190
0.175
0.161
0.148
0.137
0.128
0.119
0.112
0.105
0.100
0.095
0.091
0.087
0.084
0.081
0.078
0.076
0.074
0.072
0.071
0.069
0.067
0.066
0.064
0.063
0.061
0.060
0.059
0.057
0.056
0.055
0.053
0.052
0.051
0.050
0.048
0.047
0.046
0.045
0.044
0.043
0.043
0.042
0.041
0.040
0.039
0.039
0.038
0.037
0.036
0.036
0.035
0.034
0.033
0.033
0.032
0.031
0.030
0.029
0.028
0.027
0.026
0.025
0.024
0.022
0.021
0.020
0.019
0.018
0.017
0.016
0.014
0.013
0.012
0.011
0.010
0.009
0.009
0.008
0.007
0.006
0.006
0.005
0.004
0.004
0.003
0.003
0.003
0.002
0.002
0.002
0.001
0.001
0.001
0.001
0.001
0.001
0.001
0.000
0.000
0.000
0.000
0.000
0.000
0.000
0.000
0.000
0.000
0.000
0.000
0.000
0.000
0.000
0.000
0.000
0.000
0.000
0.000
0.000
0.000
0.000
0.000
0.000
0.000
0.000
0.000
-0.000
-0.000
-0.000
-0.000
-0.000
-0.000
-0.000
-0.000
-0.000
0.000
0.000
0.000
0.000
0.000
0.000
0.000
0.000
0.000
0.000
0.000
0.000
0.000
0.000
0.000
0.000
0
0
0
0
0
0
0
0
0
0
0
0
0
0
0
0
0
0
0
0
0
0
0
0
0
0
0
0
0
0
0
0
0
0
0
0
0
0
0
0
0
0
0
0
0
0
0
0
0
0
0
0
0
0
0
0
0
0
0
0
0
0
0
0
0
0
0
0
0
0
0
0
0
0
0
0
0
0
0
0
0
0
0
0
0
0
0
0
0
0
0
0
0
0
0
0
0
0
0
0
0
0
0
0
0
0
0
0
0
0
0
0
0
0
0
0
0
0
0
0
0
0
0
0
0
0
0
0
0
0
0
0
0
0
0
0
0
0
0
0
0
0
0
0
0
0
0
0
0
0
0
0
0
0
0
0
0
0
0
0
0
0
0
0
0
0
0
0
0
0
0
0
0
0
0
0
0
0
0
0
0
0
0
0
0
0
0
0
0
0
0
0
0
0
0
0
0
0
0
0
0
0
0
0
0
0
0
0
0
0
0
0
0
0
0
0
0
0
0
0
0
0
0
0
0
0
0
0
0
0
0
0
0
0
0
0
0
0
0
0
0
0
0
0
0
0
0
0
0
0
0
0
0
0
0
0
0
0
0
0
0
0
0
0
0
0
0
0
0
0
0
0
0
0
0
0
0
0
0
0
0
0
0
0
0
0
0
0
0
0
0
0
0
0
0
0
0
0
0
0
0
0
0
0
0
0
0
0
0
0
0
0
0
0
0
0
0
0
0
0
0
0
0
0
0
0
0
0
0
0
0
0
0
0
0
0
0
0
0
0
0
0
0
0
0
0
0
0
0
0
0
0
0
0
0
0
0
0
0
0
0
0
0
0
0
0
0
0
0
0
0
0
0
0
0
0
0
0
0
0
0
0
0
0
0
0
0
0
0
0
0
0
0
0
0
0
0
0
0
0
0
0
0
0
0
0
0
0
0
0
0
0
0
0
0
0
0
0
0
0
0
0
0
0
0
0
0
0
0
0
0
0
0
0
0
0
0
0
0
0
0
0
0
0
0
0
0
0
0
0
0
0
0
0
0
0
0
0
0
0
0
0
0
0
0
0
0
0
0
0
0
0
0
0
0
0
0
0
0
0
0
0
0
0
0
0
0
0
0
0
0
0
0
0
$MCA_CAL:
3
-1.4656616 2.9313233 0.00000000000000
$ENER_FIT:
-1.4656616 2.9313233 0.00000000000000
$MCA_CAL_DATA:
3
298 872
597 1749
896 2625
$CAMBIO:
Parent file specification: C:\GADRAS-DRF\Temp\152EU_125.0_50.0_lead_0.51_8.0.pcf
Successful read of spectrum: Yes
Error message: None
Warning: None
Information: None
Neutrons: 0
Number of spectral records in the parent file: 1
Record number of this spectrum in the parent file: 1
Date and time of acquisition read successfully from the original file: Yes
Live time read successfully from the original file: Yes
True time read successfully from the original file: Yes
GADRAS Tag character is:  
Version: 130122
Parent file type: Sandia GADRAS PCF
