$SPEC_ID:
152EU,1uC{26,6.28}
$MEAS_TIM:
3600.00 3600.00
$DATE_MEA:
3/9/2018 5:22:25 PM
$DATA:
0 1193
982.269
935.003
869.533
1202.489
1018.914
887.306
774.466
680.865
606.656
542.208
505.152
473.443
444.755
423.752
409.588
400.333
393.958
392.754
398.752
409.912
430.375
454.462
475.732
489.805
504.114
522.219
545.803
570.386
593.176
625.152
665.835
709.575
748.346
772.302
799.179
839.457
909.918
1018.243
1157.560
1313.459
1435.588
1462.716
1363.476
1185.919
989.722
824.613
719.190
669.370
654.098
653.822
657.345
660.178
659.345
654.306
647.794
642.240
639.293
638.667
639.580
641.662
644.320
646.617
647.961
648.147
647.051
644.624
641.347
637.988
634.386
629.911
624.500
618.442
612.305
606.882
603.873
605.732
613.873
628.203
647.911
670.783
693.974
712.627
721.606
718.315
701.791
673.171
636.622
596.494
556.970
522.036
493.600
471.749
456.258
446.170
440.368
437.618
436.545
436.013
435.658
435.354
435.126
435.247
436.112
438.921
445.385
457.020
474.697
499.138
531.113
571.610
621.526
679.399
740.607
800.387
853.045
892.180
911.579
909.231
886.258
843.954
785.870
717.008
642.467
567.137
495.840
433.238
381.393
339.709
307.438
283.616
266.883
255.876
249.291
246.098
245.289
245.912
247.384
249.228
250.990
252.410
253.405
253.882
253.828
253.355
252.614
251.721
250.654
249.320
247.608
245.436
242.701
239.331
235.252
230.513
225.254
219.598
213.704
207.774
202.039
196.711
191.933
187.719
184.093
181.073
178.587
176.533
174.791
173.265
171.879
170.587
169.327
168.064
166.803
165.555
164.348
163.195
162.100
161.071
160.109
159.235
158.455
157.793
157.277
156.905
156.637
156.417
156.192
155.912
155.558
155.132
154.617
154.008
153.290
152.455
151.479
150.350
149.070
147.677
146.194
144.639
143.058
141.459
139.864
138.289
136.762
135.292
133.897
132.600
131.411
130.343
129.392
128.570
127.860
127.269
126.801
126.446
126.204
126.071
126.049
126.120
126.273
126.494
126.778
127.102
127.435
127.773
128.080
128.340
128.532
128.652
128.676
128.595
128.395
128.088
127.675
127.164
126.575
125.906
125.202
124.497
123.837
123.252
122.786
122.508
122.471
122.740
123.374
124.431
125.920
127.855
130.247
133.108
136.433
140.149
144.186
148.454
152.874
157.353
161.754
165.899
169.624
172.759
175.157
176.713
177.413
177.241
176.159
174.145
171.240
167.549
163.199
158.311
153.020
147.441
141.718
135.995
130.415
125.122
120.255
115.891
112.018
108.631
105.718
103.278
101.289
99.705
98.466
97.522
96.810
96.267
95.845
95.474
95.095
94.642
94.060
93.283
92.312
91.189
89.946
88.627
87.260
85.902
84.581
83.358
82.274
81.384
80.726
80.353
80.284
80.530
81.120
82.062
83.382
85.071
87.095
89.395
91.927
94.626
97.453
100.338
103.207
105.958
108.510
110.780
112.664
114.103
115.055
115.512
115.439
114.832
113.662
111.929
109.671
106.963
103.885
100.491
96.866
93.072
89.194
85.298
81.476
77.801
74.358
71.216
68.446
66.070
64.108
62.594
61.546
60.994
60.951
61.415
62.360
63.779
65.644
67.948
70.658
73.762
77.188
80.886
84.810
88.893
93.096
97.342
101.585
105.716
109.677
113.369
116.731
119.663
122.118
124.070
125.481
126.351
126.636
126.336
125.410
123.886
121.803
119.215
116.153
112.682
108.832
104.668
100.227
95.579
90.782
85.883
80.955
76.042
71.214
66.497
61.933
57.552
53.386
49.462
45.820
42.482
39.444
36.691
34.204
31.965
29.951
28.150
26.539
25.104
23.827
22.697
21.693
20.804
20.011
19.299
18.660
18.080
17.558
17.080
16.642
16.233
15.848
15.479
15.127
14.794
14.479
14.181
13.902
13.643
13.401
13.179
12.976
12.793
12.628
12.484
12.357
12.251
12.163
12.095
12.046
12.015
12.005
12.012
12.040
12.087
12.162
12.270
12.421
12.620
12.876
13.196
13.586
14.056
14.614
15.272
16.035
16.915
17.920
19.061
20.344
21.767
23.325
25.011
26.816
28.732
30.757
32.879
35.091
37.366
39.679
41.995
44.292
46.535
48.703
50.757
52.684
54.447
56.025
57.401
58.541
59.433
60.039
60.354
60.346
60.041
59.442
58.576
57.448
56.082
54.492
52.689
50.698
48.539
46.250
43.852
41.380
38.862
36.328
33.804
31.321
28.891
26.531
24.248
22.058
19.973
18.003
16.164
14.463
12.904
11.478
10.181
9.005
7.945
6.993
6.145
5.393
4.731
4.152
3.647
3.210
2.833
2.508
2.229
1.988
1.777
1.594
1.435
1.298
1.180
1.078
0.989
0.911
0.841
0.776
0.718
0.664
0.615
0.569
0.528
0.489
0.453
0.419
0.386
0.356
0.327
0.301
0.276
0.253
0.232
0.212
0.194
0.178
0.164
0.151
0.139
0.128
0.119
0.110
0.103
0.096
0.090
0.085
0.080
0.076
0.072
0.069
0.067
0.064
0.062
0.060
0.058
0.056
0.055
0.053
0.052
0.051
0.049
0.048
0.047
0.046
0.045
0.044
0.043
0.042
0.041
0.040
0.039
0.038
0.037
0.036
0.036
0.035
0.034
0.033
0.033
0.032
0.031
0.031
0.030
0.030
0.029
0.028
0.028
0.027
0.026
0.026
0.025
0.024
0.024
0.023
0.022
0.021
0.021
0.020
0.019
0.018
0.017
0.016
0.016
0.015
0.014
0.013
0.012
0.011
0.011
0.010
0.009
0.008
0.008
0.007
0.007
0.006
0.005
0.005
0.004
0.004
0.003
0.003
0.003
0.002
0.002
0.002
0.002
0.001
0.001
0.001
0.001
0.001
0.001
0.001
0.000
0.000
0.000
0.000
0.000
0.000
0.000
0.000
0.000
0.000
0.000
0.000
0.000
0.000
0.000
0.000
0.000
0.000
0.000
0.000
0.000
0.000
0.000
0.000
0.000
0.000
0.000
0.000
0.000
0.000
0.000
0.000
-0.000
-0.000
-0.000
-0.000
-0.000
-0.000
-0.000
-0.000
-0.000
-0.000
0.000
0.000
0.000
0.000
0.000
0.000
0.000
0.000
0.000
0.000
0.000
-0.000
-0.000
-0.000
-0.000
-0.000
-0.000
-0.000
-0.000
-0.000
-0.000
0.000
0.000
0.000
0.000
0.000
0.000
0
0
0
0
0
0
0
0
0
0
0
0
0
0
0
0
0
0
0
0
0
0
0
0
0
0
0
0
0
0
0
0
0
0
0
0
0
0
0
0
0
0
0
0
0
0
0
0
0
0
0
0
0
0
0
0
0
0
0
0
0
0
0
0
0
0
0
0
0
0
0
0
0
0
0
0
0
0
0
0
0
0
0
0
0
0
0
0
0
0
0
0
0
0
0
0
0
0
0
0
0
0
0
0
0
0
0
0
0
0
0
0
0
0
0
0
0
0
0
0
0
0
0
0
0
0
0
0
0
0
0
0
0
0
0
0
0
0
0
0
0
0
0
0
0
0
0
0
0
0
0
0
0
0
0
0
0
0
0
0
0
0
0
0
0
0
0
0
0
0
0
0
0
0
0
0
0
0
0
0
0
0
0
0
0
0
0
0
0
0
0
0
0
0
0
0
0
0
0
0
0
0
0
0
0
0
0
0
0
0
0
0
0
0
0
0
0
0
0
0
0
0
0
0
0
0
0
0
0
0
0
0
0
0
0
0
0
0
0
0
0
0
0
0
0
0
0
0
0
0
0
0
0
0
0
0
0
0
0
0
0
0
0
0
0
0
0
0
0
0
0
0
0
0
0
0
0
0
0
0
0
0
0
0
0
0
0
0
0
0
0
0
0
0
0
0
0
0
0
0
0
0
0
0
0
0
0
0
0
0
0
0
0
0
0
0
0
0
0
0
0
0
0
0
0
0
0
0
0
0
0
0
0
0
0
0
0
0
0
0
0
0
0
0
0
0
0
0
0
0
0
0
0
0
0
0
0
0
0
0
0
0
0
0
0
0
0
0
0
0
0
0
0
0
0
0
0
0
0
0
0
0
0
0
0
0
0
0
0
0
0
0
0
0
0
0
0
0
0
0
0
0
0
0
0
0
0
0
0
0
0
0
0
0
0
0
0
0
0
0
0
0
0
0
0
0
0
0
0
0
0
0
0
0
0
0
0
0
0
0
0
0
0
0
0
0
0
0
0
0
0
0
0
0
0
0
0
0
0
0
0
0
0
0
0
0
0
0
0
0
0
0
0
0
0
0
0
0
$MCA_CAL:
3
-1.4656616 2.9313233 0.00000000000000
$ENER_FIT:
-1.4656616 2.9313233 0.00000000000000
$MCA_CAL_DATA:
3
298 872
597 1749
896 2625
$CAMBIO:
Parent file specification: C:\GADRAS-DRF\Temp\152EU_100.0_50.0_iron_6.28_8.5.pcf
Successful read of spectrum: Yes
Error message: None
Warning: None
Information: None
Neutrons: 0
Number of spectral records in the parent file: 1
Record number of this spectrum in the parent file: 1
Date and time of acquisition read successfully from the original file: Yes
Live time read successfully from the original file: Yes
True time read successfully from the original file: Yes
GADRAS Tag character is:  
Version: 130122
Parent file type: Sandia GADRAS PCF
