$SPEC_ID:
152EU,1uC{82,0.92}
$MEAS_TIM:
3600.00 3600.00
$DATE_MEA:
3/9/2018 5:22:25 PM
$DATA:
0 1193
1332.571
1240.437
1136.785
1070.285
944.775
836.705
739.587
658.161
588.905
527.246
492.267
462.052
432.823
411.526
397.365
386.712
377.895
372.637
372.711
376.766
384.455
393.901
400.860
398.458
391.687
386.523
383.031
382.327
382.351
384.032
387.809
392.827
398.387
403.206
408.664
417.230
432.267
456.659
490.670
529.405
560.877
572.653
558.885
527.407
491.869
465.059
452.650
453.566
462.319
471.128
476.137
476.838
472.789
465.065
457.070
451.237
448.857
449.503
452.318
456.786
462.050
466.750
470.253
472.696
473.852
473.265
471.507
469.691
467.545
464.101
459.493
454.523
450.099
447.228
447.668
453.814
467.384
489.093
518.403
552.100
586.239
615.202
633.161
636.616
623.584
595.069
556.413
513.134
470.108
431.891
400.911
377.738
362.377
353.312
348.748
347.226
347.530
348.629
350.050
351.504
353.025
355.133
358.480
364.580
375.465
393.217
420.191
458.814
510.701
575.890
654.115
742.652
835.493
926.467
1007.990
1071.364
1108.107
1114.867
1092.118
1040.641
965.412
874.209
774.905
674.362
578.754
494.047
423.155
365.867
321.791
289.885
268.060
254.171
246.251
242.921
242.872
244.864
248.095
251.896
255.623
258.911
261.645
263.699
265.043
265.796
266.121
266.146
265.848
265.132
263.885
262.001
259.314
255.688
250.990
245.282
238.763
231.613
224.062
216.414
209.007
202.159
196.076
190.777
186.292
182.636
179.714
177.385
175.490
173.893
172.493
171.221
169.992
168.754
167.516
166.299
165.138
164.054
163.049
162.129
161.295
160.565
159.960
159.514
159.272
159.236
159.347
159.528
159.701
159.798
159.792
159.687
159.465
159.121
158.628
157.961
157.080
155.955
154.590
153.039
151.344
149.543
147.695
145.818
143.939
142.082
140.283
138.559
136.938
135.456
134.130
132.979
131.998
131.190
130.536
130.038
129.700
129.515
129.487
129.614
129.900
130.320
130.859
131.498
132.225
133.012
133.818
134.629
135.403
136.113
136.729
137.239
137.612
137.828
137.867
137.745
137.467
137.047
136.510
135.861
135.159
134.451
133.800
133.251
132.865
132.741
132.966
133.634
134.837
136.658
139.108
142.201
145.948
150.360
155.424
161.042
167.108
173.500
180.105
186.793
193.373
199.605
205.262
210.110
213.946
216.622
218.106
218.359
217.324
214.957
211.306
206.526
200.801
194.306
187.233
179.750
172.057
164.351
156.830
149.691
143.125
137.242
132.030
127.485
123.596
120.364
117.763
115.730
114.179
113.036
112.214
111.624
111.197
110.839
110.470
110.004
109.363
108.463
107.300
105.930
104.395
102.750
101.033
99.318
97.644
96.097
94.734
93.634
92.850
92.456
92.478
92.935
93.863
95.278
97.215
99.663
102.575
105.871
109.489
113.342
117.376
121.495
125.597
129.544
133.222
136.519
139.292
141.457
142.959
143.784
143.883
143.249
141.840
139.656
136.747
133.220
129.178
124.700
119.901
114.865
109.707
104.518
99.421
94.513
89.910
85.706
81.995
78.812
76.189
74.173
72.793
72.090
72.089
72.784
74.138
76.138
78.745
81.947
85.699
89.981
94.700
99.788
105.184
110.801
116.585
122.435
128.287
133.995
139.478
144.602
149.284
153.388
156.850
159.634
161.692
163.020
163.563
163.319
162.233
160.342
157.699
154.374
150.409
145.891
140.859
135.399
129.560
123.439
117.113
110.645
104.134
97.639
91.255
85.016
78.978
73.179
67.664
62.467
57.641
53.215
49.186
45.533
42.233
39.262
36.593
34.210
32.082
30.194
28.518
27.040
25.731
24.575
23.547
22.626
21.800
21.053
20.381
19.768
19.207
18.684
18.193
17.723
17.277
16.855
16.457
16.082
15.731
15.407
15.106
14.832
14.583
14.359
14.159
13.986
13.836
13.712
13.612
13.537
13.488
13.463
13.464
13.489
13.540
13.618
13.731
13.888
14.101
14.376
14.724
15.155
15.677
16.302
17.042
17.911
18.918
20.078
21.402
22.904
24.593
26.468
28.520
30.741
33.120
35.648
38.320
41.121
44.043
47.052
50.110
53.175
56.216
59.187
62.060
64.783
67.339
69.681
71.781
73.618
75.150
76.359
77.199
77.662
77.709
77.369
76.649
75.580
74.170
72.446
70.427
68.125
65.573
62.798
59.849
56.754
53.560
50.305
47.028
43.762
40.552
37.410
34.359
31.407
28.576
25.880
23.332
20.951
18.749
16.728
14.878
13.194
11.667
10.290
9.053
7.951
6.974
6.114
5.361
4.707
4.141
3.653
3.233
2.872
2.560
2.288
2.051
1.846
1.669
1.517
1.385
1.270
1.169
1.079
0.996
0.920
0.851
0.788
0.729
0.676
0.626
0.579
0.535
0.494
0.455
0.419
0.384
0.353
0.323
0.296
0.271
0.248
0.227
0.209
0.192
0.176
0.163
0.151
0.140
0.130
0.121
0.114
0.107
0.101
0.096
0.091
0.087
0.084
0.081
0.078
0.075
0.073
0.071
0.069
0.067
0.065
0.064
0.062
0.061
0.059
0.058
0.056
0.055
0.054
0.052
0.051
0.050
0.049
0.048
0.047
0.046
0.045
0.044
0.043
0.042
0.041
0.040
0.040
0.039
0.038
0.037
0.036
0.036
0.035
0.034
0.033
0.032
0.032
0.031
0.030
0.029
0.028
0.027
0.026
0.025
0.024
0.023
0.022
0.021
0.020
0.019
0.018
0.017
0.016
0.015
0.014
0.013
0.012
0.011
0.010
0.009
0.008
0.007
0.007
0.006
0.006
0.005
0.004
0.004
0.003
0.003
0.003
0.002
0.002
0.002
0.002
0.001
0.001
0.001
0.001
0.001
0.001
0.001
0.000
0.000
0.000
0.000
0.000
0.000
0.000
0.000
0.000
0.000
0.000
0.000
0.000
0.000
0.000
0.000
0.000
0.000
0.000
0.000
0.000
0.000
0.000
0.000
0.000
0.000
0.000
0.000
0.000
0.000
-0.000
-0.000
-0.000
-0.000
-0.000
-0.000
-0.000
-0.000
-0.000
-0.000
0.000
0.000
0.000
0.000
0.000
0.000
0.000
0.000
0.000
0.000
0.000
-0.000
-0.000
-0.000
-0.000
-0.000
-0.000
-0.000
-0.000
-0.000
-0.000
0.000
0.000
0.000
0.000
0.000
0.000
0
0
0
0
0
0
0
0
0
0
0
0
0
0
0
0
0
0
0
0
0
0
0
0
0
0
0
0
0
0
0
0
0
0
0
0
0
0
0
0
0
0
0
0
0
0
0
0
0
0
0
0
0
0
0
0
0
0
0
0
0
0
0
0
0
0
0
0
0
0
0
0
0
0
0
0
0
0
0
0
0
0
0
0
0
0
0
0
0
0
0
0
0
0
0
0
0
0
0
0
0
0
0
0
0
0
0
0
0
0
0
0
0
0
0
0
0
0
0
0
0
0
0
0
0
0
0
0
0
0
0
0
0
0
0
0
0
0
0
0
0
0
0
0
0
0
0
0
0
0
0
0
0
0
0
0
0
0
0
0
0
0
0
0
0
0
0
0
0
0
0
0
0
0
0
0
0
0
0
0
0
0
0
0
0
0
0
0
0
0
0
0
0
0
0
0
0
0
0
0
0
0
0
0
0
0
0
0
0
0
0
0
0
0
0
0
0
0
0
0
0
0
0
0
0
0
0
0
0
0
0
0
0
0
0
0
0
0
0
0
0
0
0
0
0
0
0
0
0
0
0
0
0
0
0
0
0
0
0
0
0
0
0
0
0
0
0
0
0
0
0
0
0
0
0
0
0
0
0
0
0
0
0
0
0
0
0
0
0
0
0
0
0
0
0
0
0
0
0
0
0
0
0
0
0
0
0
0
0
0
0
0
0
0
0
0
0
0
0
0
0
0
0
0
0
0
0
0
0
0
0
0
0
0
0
0
0
0
0
0
0
0
0
0
0
0
0
0
0
0
0
0
0
0
0
0
0
0
0
0
0
0
0
0
0
0
0
0
0
0
0
0
0
0
0
0
0
0
0
0
0
0
0
0
0
0
0
0
0
0
0
0
0
0
0
0
0
0
0
0
0
0
0
0
0
0
0
0
0
0
0
0
0
0
0
0
0
0
0
0
0
0
0
0
0
0
0
0
0
0
0
0
0
0
0
0
0
0
0
0
0
0
0
0
0
0
0
0
0
0
0
0
0
0
0
0
0
0
0
0
0
0
0
0
0
0
0
0
0
0
0
0
0
0
0
0
0
0
$MCA_CAL:
3
-1.4656616 2.9313233 0.00000000000000
$ENER_FIT:
-1.4656616 2.9313233 0.00000000000000
$MCA_CAL_DATA:
3
298 872
597 1749
896 2625
$CAMBIO:
Parent file specification: C:\GADRAS-DRF\Temp\152EU_100.0_50.0_lead_0.92_8.5.pcf
Successful read of spectrum: Yes
Error message: None
Warning: None
Information: None
Neutrons: 0
Number of spectral records in the parent file: 1
Record number of this spectrum in the parent file: 1
Date and time of acquisition read successfully from the original file: Yes
Live time read successfully from the original file: Yes
True time read successfully from the original file: Yes
GADRAS Tag character is:  
Version: 130122
Parent file type: Sandia GADRAS PCF
