$SPEC_ID:
152EU,1uC{26,3.50}
$MEAS_TIM:
3600.00 3600.00
$DATE_MEA:
3/9/2018 5:22:25 PM
$DATA:
0 1193
1160.451
1107.448
1024.247
1194.732
1024.292
894.816
782.519
689.333
613.737
548.060
510.296
478.065
448.444
426.862
412.331
402.287
394.528
391.339
395.202
404.135
422.255
444.083
466.459
485.885
507.188
533.590
566.833
602.883
641.860
692.810
753.626
816.505
869.946
905.443
946.313
1013.558
1139.607
1343.465
1616.771
1924.399
2164.865
2221.484
2035.342
1690.866
1304.626
977.768
763.450
654.134
611.473
600.031
599.237
600.781
600.531
597.489
593.958
591.870
592.390
595.073
599.070
603.894
608.814
612.740
615.061
615.692
614.559
611.627
607.619
603.666
599.732
595.180
590.084
584.962
580.693
578.441
580.271
589.005
606.350
632.397
666.117
704.175
742.374
774.006
792.028
792.783
774.790
739.509
692.656
640.239
588.157
542.082
504.791
476.541
457.083
444.899
438.221
435.371
434.696
434.812
435.209
435.642
436.127
437.081
439.064
443.573
452.690
468.380
492.276
525.940
570.617
627.022
695.678
774.383
857.296
938.402
1010.442
1065.193
1094.658
1095.980
1070.137
1018.362
945.283
857.762
762.770
666.692
575.569
495.238
428.402
374.548
332.982
302.575
281.466
267.768
259.715
255.991
255.330
256.533
258.854
261.681
264.427
266.757
268.564
269.729
270.231
270.199
269.806
269.188
268.324
267.111
265.430
263.181
260.227
256.466
251.792
246.263
240.055
233.324
226.270
219.153
212.268
205.886
200.187
195.192
190.928
187.414
184.565
182.252
180.329
178.674
177.197
175.836
174.517
173.193
171.870
170.566
169.310
168.122
167.005
165.967
165.010
164.155
163.416
162.819
162.401
162.160
162.047
161.995
161.938
161.816
161.606
161.310
160.908
160.395
159.750
158.958
157.988
156.820
155.457
153.945
152.315
150.594
148.837
147.055
145.273
143.514
141.809
140.171
138.623
137.194
135.898
134.751
133.748
132.899
132.185
131.611
131.182
130.888
130.730
130.706
130.817
131.042
131.369
131.779
132.265
132.801
133.351
133.906
134.427
134.890
135.273
135.566
135.742
135.787
135.684
135.448
135.080
134.592
134.006
133.323
132.596
131.866
131.187
130.597
130.150
129.927
130.000
130.446
131.342
132.757
134.702
137.192
140.237
143.849
148.021
152.666
157.697
163.007
168.500
174.063
179.534
184.701
189.368
193.333
196.420
198.502
199.557
199.560
198.462
196.233
192.917
188.644
183.569
177.841
171.622
165.054
158.310
151.560
144.975
138.727
132.982
127.832
123.265
119.277
115.856
113.001
110.689
108.864
107.455
106.397
105.617
105.039
104.604
104.231
103.848
103.379
102.759
101.912
100.835
99.579
98.182
96.690
95.139
93.595
92.089
90.696
89.465
88.462
87.732
87.340
87.307
87.648
88.396
89.563
91.180
93.234
95.688
98.471
101.530
104.790
108.203
111.687
115.154
118.485
121.582
124.347
126.658
128.443
129.654
130.279
130.278
129.644
128.342
126.374
123.781
120.655
117.088
113.146
108.929
104.509
99.986
95.440
90.978
86.683
82.657
78.982
75.739
72.957
70.662
68.893
67.674
67.039
67.008
67.577
68.714
70.410
72.630
75.367
78.581
82.256
86.309
90.682
95.321
100.149
105.120
110.145
115.169
120.065
124.763
129.148
133.148
136.645
139.584
141.934
143.652
144.736
145.137
144.853
143.838
142.122
139.753
136.792
133.275
129.279
124.838
120.027
114.890
109.509
103.952
98.275
92.561
86.864
81.264
75.793
70.499
65.416
60.583
56.029
51.802
47.927
44.400
41.203
38.315
35.715
33.379
31.290
29.424
27.766
26.291
24.990
23.835
22.813
21.904
21.089
20.357
19.694
19.098
18.553
18.054
17.589
17.151
16.732
16.333
15.955
15.599
15.263
14.948
14.655
14.384
14.135
13.909
13.705
13.522
13.362
13.224
13.108
13.013
12.941
12.891
12.862
12.857
12.872
12.910
12.971
13.064
13.195
13.375
13.610
13.911
14.284
14.738
15.283
15.930
16.690
17.572
18.589
19.749
21.067
22.547
24.191
25.989
27.936
30.020
32.234
34.574
37.027
39.584
42.216
44.891
47.571
50.230
52.827
55.337
57.716
59.949
61.993
63.824
65.423
66.753
67.797
68.514
68.899
68.914
68.588
67.926
66.957
65.687
64.142
62.339
60.288
58.019
55.556
52.941
50.199
47.372
44.491
41.591
38.702
35.862
33.081
30.381
27.768
25.263
22.877
20.623
18.517
16.569
14.783
13.149
11.662
10.313
9.098
8.006
7.033
6.171
5.411
4.747
4.169
3.668
3.236
2.865
2.546
2.270
2.029
1.819
1.638
1.481
1.346
1.229
1.127
1.038
0.958
0.885
0.817
0.756
0.700
0.648
0.601
0.556
0.515
0.476
0.439
0.405
0.372
0.342
0.314
0.288
0.263
0.241
0.221
0.203
0.186
0.171
0.157
0.145
0.134
0.125
0.116
0.109
0.102
0.096
0.091
0.086
0.082
0.078
0.075
0.072
0.070
0.067
0.065
0.063
0.062
0.060
0.058
0.057
0.056
0.054
0.053
0.052
0.050
0.049
0.048
0.047
0.046
0.045
0.044
0.043
0.042
0.041
0.040
0.039
0.039
0.038
0.037
0.036
0.035
0.035
0.034
0.033
0.033
0.032
0.031
0.030
0.030
0.029
0.028
0.027
0.027
0.026
0.025
0.024
0.023
0.022
0.021
0.021
0.020
0.019
0.018
0.017
0.016
0.015
0.014
0.013
0.012
0.011
0.010
0.010
0.009
0.008
0.007
0.007
0.006
0.005
0.005
0.004
0.004
0.004
0.003
0.003
0.002
0.002
0.002
0.002
0.001
0.001
0.001
0.001
0.001
0.001
0.001
0.000
0.000
0.000
0.000
0.000
0.000
0.000
0.000
0.000
0.000
0.000
0.000
0.000
0.000
0.000
0.000
0.000
0.000
0.000
0.000
0.000
0.000
0.000
0.000
0.000
0.000
0.000
0.000
0.000
0.000
0.000
-0.000
-0.000
-0.000
-0.000
-0.000
-0.000
-0.000
-0.000
-0.000
-0.000
0.000
0.000
0.000
0.000
0.000
0.000
0.000
0.000
0.000
0.000
0.000
-0.000
-0.000
-0.000
-0.000
-0.000
-0.000
-0.000
-0.000
-0.000
-0.000
0.000
0.000
0.000
0.000
0.000
0.000
0
0
0
0
0
0
0
0
0
0
0
0
0
0
0
0
0
0
0
0
0
0
0
0
0
0
0
0
0
0
0
0
0
0
0
0
0
0
0
0
0
0
0
0
0
0
0
0
0
0
0
0
0
0
0
0
0
0
0
0
0
0
0
0
0
0
0
0
0
0
0
0
0
0
0
0
0
0
0
0
0
0
0
0
0
0
0
0
0
0
0
0
0
0
0
0
0
0
0
0
0
0
0
0
0
0
0
0
0
0
0
0
0
0
0
0
0
0
0
0
0
0
0
0
0
0
0
0
0
0
0
0
0
0
0
0
0
0
0
0
0
0
0
0
0
0
0
0
0
0
0
0
0
0
0
0
0
0
0
0
0
0
0
0
0
0
0
0
0
0
0
0
0
0
0
0
0
0
0
0
0
0
0
0
0
0
0
0
0
0
0
0
0
0
0
0
0
0
0
0
0
0
0
0
0
0
0
0
0
0
0
0
0
0
0
0
0
0
0
0
0
0
0
0
0
0
0
0
0
0
0
0
0
0
0
0
0
0
0
0
0
0
0
0
0
0
0
0
0
0
0
0
0
0
0
0
0
0
0
0
0
0
0
0
0
0
0
0
0
0
0
0
0
0
0
0
0
0
0
0
0
0
0
0
0
0
0
0
0
0
0
0
0
0
0
0
0
0
0
0
0
0
0
0
0
0
0
0
0
0
0
0
0
0
0
0
0
0
0
0
0
0
0
0
0
0
0
0
0
0
0
0
0
0
0
0
0
0
0
0
0
0
0
0
0
0
0
0
0
0
0
0
0
0
0
0
0
0
0
0
0
0
0
0
0
0
0
0
0
0
0
0
0
0
0
0
0
0
0
0
0
0
0
0
0
0
0
0
0
0
0
0
0
0
0
0
0
0
0
0
0
0
0
0
0
0
0
0
0
0
0
0
0
0
0
0
0
0
0
0
0
0
0
0
0
0
0
0
0
0
0
0
0
0
0
0
0
0
0
0
0
0
0
0
0
0
0
0
0
0
0
0
0
0
0
0
0
0
0
0
0
0
0
0
0
0
0
0
0
0
0
0
0
0
0
0
0
0
$MCA_CAL:
3
-1.4656616 2.9313233 0.00000000000000
$ENER_FIT:
-1.4656616 2.9313233 0.00000000000000
$MCA_CAL_DATA:
3
298 872
597 1749
896 2625
$CAMBIO:
Parent file specification: C:\GADRAS-DRF\Temp\152EU_150.0_50.0_iron_3.50_8.5.pcf
Successful read of spectrum: Yes
Error message: None
Warning: None
Information: None
Neutrons: 0
Number of spectral records in the parent file: 1
Record number of this spectrum in the parent file: 1
Date and time of acquisition read successfully from the original file: Yes
Live time read successfully from the original file: Yes
True time read successfully from the original file: Yes
GADRAS Tag character is:  
Version: 130122
Parent file type: Sandia GADRAS PCF
