$SPEC_ID:
152EU,1uC{26,3.50}
$MEAS_TIM:
3600.00 3600.00
$DATE_MEA:
3/9/2018 5:22:25 PM
$DATA:
0 1193
1597.087
1577.439
1478.114
1768.425
1502.404
1298.063
1124.288
983.700
873.982
780.336
727.822
683.959
643.814
617.137
603.139
597.296
596.052
603.574
623.347
651.192
692.522
739.941
783.432
815.604
851.653
895.618
939.246
972.461
990.435
1011.293
1044.249
1088.073
1133.122
1166.622
1210.403
1281.320
1408.326
1608.591
1873.598
2169.885
2398.301
2444.406
2250.504
1900.255
1512.427
1189.873
982.247
881.964
851.921
855.169
869.005
882.561
888.058
882.400
868.801
851.755
835.717
822.324
811.988
804.415
798.697
793.319
787.517
781.357
774.831
767.887
761.302
756.254
752.245
747.912
742.978
737.826
733.234
730.265
730.644
736.631
749.814
770.759
798.823
830.777
862.493
887.349
898.403
892.122
867.162
825.170
772.108
714.147
656.980
605.983
563.852
530.946
507.101
490.838
480.411
474.166
470.469
467.946
466.036
464.439
463.113
462.430
462.905
465.993
473.730
488.047
510.563
542.836
586.117
641.163
708.538
786.082
867.997
948.306
1019.694
1073.794
1102.471
1102.876
1076.098
1023.479
949.684
861.549
766.023
669.477
577.943
497.254
430.106
375.988
334.207
303.629
282.389
268.590
260.460
256.677
255.965
257.123
259.401
262.188
264.898
267.195
268.972
270.107
270.580
270.518
270.098
269.457
268.573
267.346
265.655
263.402
260.448
256.687
252.013
246.484
240.276
233.543
226.489
219.373
212.488
206.106
200.408
195.412
191.148
187.632
184.779
182.461
180.531
178.869
177.384
176.014
174.685
173.353
172.021
170.708
169.444
168.248
167.122
166.076
165.111
164.248
163.502
162.898
162.475
162.230
162.115
162.061
162.002
161.878
161.666
161.368
160.964
160.449
159.802
159.008
158.036
156.866
155.501
153.987
152.356
150.635
148.877
147.094
145.313
143.554
141.848
140.210
138.661
137.231
135.935
134.786
133.783
132.933
132.218
131.643
131.212
130.917
130.758
130.732
130.842
131.066
131.391
131.800
132.284
132.819
133.368
133.921
134.441
134.903
135.285
135.577
135.752
135.796
135.693
135.456
135.087
134.599
134.012
133.328
132.601
131.871
131.191
130.601
130.153
129.931
130.003
130.449
131.345
132.760
134.705
137.193
140.238
143.851
148.022
152.667
157.698
163.008
168.500
174.064
179.534
184.701
189.369
193.334
196.420
198.502
199.558
199.560
198.463
196.233
192.917
188.644
183.569
177.841
171.622
165.054
158.310
151.560
144.975
138.727
132.982
127.832
123.265
119.277
115.856
113.001
110.689
108.864
107.455
106.397
105.617
105.039
104.604
104.231
103.848
103.379
102.759
101.912
100.835
99.579
98.182
96.690
95.139
93.595
92.089
90.696
89.465
88.462
87.732
87.340
87.307
87.648
88.396
89.563
91.180
93.234
95.688
98.471
101.530
104.790
108.203
111.687
115.154
118.485
121.582
124.347
126.658
128.443
129.654
130.279
130.278
129.644
128.342
126.374
123.781
120.655
117.088
113.146
108.929
104.509
99.986
95.440
90.978
86.683
82.657
78.982
75.739
72.957
70.662
68.893
67.674
67.039
67.008
67.577
68.714
70.410
72.630
75.367
78.581
82.256
86.309
90.682
95.321
100.149
105.120
110.145
115.169
120.065
124.763
129.148
133.148
136.645
139.584
141.934
143.652
144.736
145.137
144.853
143.838
142.122
139.753
136.792
133.275
129.279
124.838
120.027
114.890
109.509
103.952
98.275
92.561
86.864
81.264
75.793
70.499
65.416
60.583
56.029
51.802
47.927
44.400
41.203
38.315
35.715
33.379
31.290
29.424
27.766
26.291
24.990
23.835
22.813
21.904
21.089
20.357
19.694
19.098
18.553
18.054
17.589
17.151
16.732
16.333
15.955
15.599
15.263
14.948
14.655
14.384
14.135
13.909
13.705
13.522
13.362
13.224
13.108
13.013
12.941
12.891
12.862
12.857
12.872
12.910
12.971
13.064
13.195
13.375
13.610
13.911
14.284
14.738
15.283
15.930
16.690
17.572
18.589
19.749
21.067
22.547
24.191
25.989
27.936
30.020
32.234
34.574
37.027
39.584
42.216
44.891
47.571
50.230
52.827
55.337
57.716
59.949
61.993
63.824
65.423
66.753
67.797
68.514
68.899
68.914
68.588
67.926
66.957
65.687
64.142
62.339
60.288
58.019
55.556
52.941
50.199
47.372
44.491
41.591
38.702
35.862
33.081
30.381
27.768
25.263
22.877
20.623
18.517
16.569
14.783
13.149
11.662
10.313
9.098
8.006
7.033
6.171
5.411
4.747
4.169
3.668
3.236
2.865
2.546
2.270
2.029
1.819
1.638
1.481
1.346
1.229
1.127
1.038
0.958
0.885
0.817
0.756
0.700
0.648
0.601
0.556
0.515
0.476
0.439
0.405
0.372
0.342
0.314
0.288
0.263
0.241
0.221
0.203
0.186
0.171
0.157
0.145
0.134
0.125
0.116
0.109
0.102
0.096
0.091
0.086
0.082
0.078
0.075
0.072
0.070
0.067
0.065
0.063
0.062
0.060
0.058
0.057
0.056
0.054
0.053
0.052
0.050
0.049
0.048
0.047
0.046
0.045
0.044
0.043
0.042
0.041
0.040
0.039
0.039
0.038
0.037
0.036
0.035
0.035
0.034
0.033
0.033
0.032
0.031
0.030
0.030
0.029
0.028
0.027
0.027
0.026
0.025
0.024
0.023
0.022
0.021
0.021
0.020
0.019
0.018
0.017
0.016
0.015
0.014
0.013
0.012
0.011
0.010
0.010
0.009
0.008
0.007
0.007
0.006
0.005
0.005
0.004
0.004
0.004
0.003
0.003
0.002
0.002
0.002
0.002
0.001
0.001
0.001
0.001
0.001
0.001
0.001
0.000
0.000
0.000
0.000
0.000
0.000
0.000
0.000
0.000
0.000
0.000
0.000
0.000
0.000
0.000
0.000
0.000
0.000
0.000
0.000
0.000
0.000
0.000
0.000
0.000
0.000
0.000
0.000
0.000
0.000
0.000
-0.000
-0.000
-0.000
-0.000
-0.000
-0.000
-0.000
-0.000
-0.000
-0.000
0.000
0.000
0.000
0.000
0.000
0.000
0.000
0.000
0.000
0.000
0.000
-0.000
-0.000
-0.000
-0.000
-0.000
-0.000
-0.000
-0.000
-0.000
-0.000
0.000
0.000
0.000
0.000
0.000
0.000
0
0
0
0
0
0
0
0
0
0
0
0
0
0
0
0
0
0
0
0
0
0
0
0
0
0
0
0
0
0
0
0
0
0
0
0
0
0
0
0
0
0
0
0
0
0
0
0
0
0
0
0
0
0
0
0
0
0
0
0
0
0
0
0
0
0
0
0
0
0
0
0
0
0
0
0
0
0
0
0
0
0
0
0
0
0
0
0
0
0
0
0
0
0
0
0
0
0
0
0
0
0
0
0
0
0
0
0
0
0
0
0
0
0
0
0
0
0
0
0
0
0
0
0
0
0
0
0
0
0
0
0
0
0
0
0
0
0
0
0
0
0
0
0
0
0
0
0
0
0
0
0
0
0
0
0
0
0
0
0
0
0
0
0
0
0
0
0
0
0
0
0
0
0
0
0
0
0
0
0
0
0
0
0
0
0
0
0
0
0
0
0
0
0
0
0
0
0
0
0
0
0
0
0
0
0
0
0
0
0
0
0
0
0
0
0
0
0
0
0
0
0
0
0
0
0
0
0
0
0
0
0
0
0
0
0
0
0
0
0
0
0
0
0
0
0
0
0
0
0
0
0
0
0
0
0
0
0
0
0
0
0
0
0
0
0
0
0
0
0
0
0
0
0
0
0
0
0
0
0
0
0
0
0
0
0
0
0
0
0
0
0
0
0
0
0
0
0
0
0
0
0
0
0
0
0
0
0
0
0
0
0
0
0
0
0
0
0
0
0
0
0
0
0
0
0
0
0
0
0
0
0
0
0
0
0
0
0
0
0
0
0
0
0
0
0
0
0
0
0
0
0
0
0
0
0
0
0
0
0
0
0
0
0
0
0
0
0
0
0
0
0
0
0
0
0
0
0
0
0
0
0
0
0
0
0
0
0
0
0
0
0
0
0
0
0
0
0
0
0
0
0
0
0
0
0
0
0
0
0
0
0
0
0
0
0
0
0
0
0
0
0
0
0
0
0
0
0
0
0
0
0
0
0
0
0
0
0
0
0
0
0
0
0
0
0
0
0
0
0
0
0
0
0
0
0
0
0
0
0
0
0
0
0
0
0
0
0
0
0
0
0
0
0
0
0
0
0
$MCA_CAL:
3
-1.4656616 2.9313233 0.00000000000000
$ENER_FIT:
-1.4656616 2.9313233 0.00000000000000
$MCA_CAL_DATA:
3
298 872
597 1749
896 2625
$CAMBIO:
Parent file specification: C:\GADRAS-DRF\Temp\152EU_50.0_50.0_iron_3.50_8.5.pcf
Successful read of spectrum: Yes
Error message: None
Warning: None
Information: None
Neutrons: 0
Number of spectral records in the parent file: 1
Record number of this spectrum in the parent file: 1
Date and time of acquisition read successfully from the original file: Yes
Live time read successfully from the original file: Yes
True time read successfully from the original file: Yes
GADRAS Tag character is:  
Version: 130122
Parent file type: Sandia GADRAS PCF
