$SPEC_ID:
152EU,1uC{26,3.50}
$MEAS_TIM:
3600.00 3600.00
$DATE_MEA:
3/9/2018 5:22:25 PM
$DATA:
0 1193
1193.954
1144.654
1060.309
1241.012
1062.165
926.184
808.710
711.647
633.386
565.591
526.702
493.563
463.085
441.023
426.436
416.653
409.337
406.889
411.982
422.568
443.061
467.580
492.028
512.448
535.192
563.611
598.022
633.505
669.865
717.700
776.226
837.984
891.213
926.678
967.772
1035.239
1161.268
1364.815
1637.589
1944.538
2184.329
2240.436
2054.030
1709.493
1323.512
997.338
783.977
675.823
634.449
624.139
624.011
625.496
624.390
619.846
614.570
610.825
609.995
611.646
614.882
619.198
623.823
627.591
629.862
630.566
629.596
626.842
622.988
619.138
615.203
610.481
605.037
599.407
594.474
591.390
592.251
599.942
616.226
641.240
673.987
711.135
748.490
779.373
796.769
796.999
778.525
742.796
695.577
642.910
590.647
544.393
506.904
478.458
458.822
446.481
439.666
436.699
435.925
435.959
436.288
436.664
437.098
438.007
439.947
444.416
453.493
469.143
493.000
526.624
571.259
627.621
696.235
774.899
857.774
938.849
1010.862
1065.584
1095.010
1096.285
1070.394
1018.577
945.464
857.914
762.897
666.797
575.654
495.308
428.459
374.594
333.021
302.609
281.497
267.797
259.741
256.016
255.354
256.556
258.876
261.702
264.448
266.777
268.583
269.748
270.250
270.217
269.823
269.206
268.341
267.128
265.447
263.198
260.245
256.483
251.809
246.280
240.073
233.341
226.287
219.171
212.286
205.904
200.205
195.209
190.946
187.432
184.582
182.268
180.345
178.690
177.212
175.851
174.530
173.206
171.882
170.577
169.321
168.132
167.015
165.976
165.018
164.163
163.423
162.826
162.407
162.166
162.053
162.001
161.943
161.821
161.610
161.313
160.911
160.398
159.753
158.961
157.991
156.822
155.459
153.946
152.316
150.596
148.838
147.056
145.275
143.515
141.810
140.172
138.624
137.195
135.899
134.751
133.749
132.900
132.185
131.612
131.182
130.888
130.731
130.706
130.818
131.043
131.369
131.779
132.265
132.801
133.352
133.906
134.427
134.890
135.273
135.566
135.742
135.787
135.684
135.448
135.080
134.592
134.006
133.323
132.596
131.866
131.187
130.597
130.150
129.927
130.000
130.446
131.342
132.757
134.702
137.192
140.237
143.849
148.021
152.666
157.697
163.007
168.500
174.063
179.534
184.701
189.368
193.333
196.420
198.502
199.557
199.560
198.462
196.233
192.917
188.644
183.569
177.841
171.622
165.054
158.310
151.560
144.975
138.727
132.982
127.832
123.265
119.277
115.856
113.001
110.689
108.864
107.455
106.397
105.617
105.039
104.604
104.231
103.848
103.379
102.759
101.912
100.835
99.579
98.182
96.690
95.139
93.595
92.089
90.696
89.465
88.462
87.732
87.340
87.307
87.648
88.396
89.563
91.180
93.234
95.688
98.471
101.530
104.790
108.203
111.687
115.154
118.485
121.582
124.347
126.658
128.443
129.654
130.279
130.278
129.644
128.342
126.374
123.781
120.655
117.088
113.146
108.929
104.509
99.986
95.440
90.978
86.683
82.657
78.982
75.739
72.957
70.662
68.893
67.674
67.039
67.008
67.577
68.714
70.410
72.630
75.367
78.581
82.256
86.309
90.682
95.321
100.149
105.120
110.145
115.169
120.065
124.763
129.148
133.148
136.645
139.584
141.934
143.652
144.736
145.137
144.853
143.838
142.122
139.753
136.792
133.275
129.279
124.838
120.027
114.890
109.509
103.952
98.275
92.561
86.864
81.264
75.793
70.499
65.416
60.583
56.029
51.802
47.927
44.400
41.203
38.315
35.715
33.379
31.290
29.424
27.766
26.291
24.990
23.835
22.813
21.904
21.089
20.357
19.694
19.098
18.553
18.054
17.589
17.151
16.732
16.333
15.955
15.599
15.263
14.948
14.655
14.384
14.135
13.909
13.705
13.522
13.362
13.224
13.108
13.013
12.941
12.891
12.862
12.857
12.872
12.910
12.971
13.064
13.195
13.375
13.610
13.911
14.284
14.738
15.283
15.930
16.690
17.572
18.589
19.749
21.067
22.547
24.191
25.989
27.936
30.020
32.234
34.574
37.027
39.584
42.216
44.891
47.571
50.230
52.827
55.337
57.716
59.949
61.993
63.824
65.423
66.753
67.797
68.514
68.899
68.914
68.588
67.926
66.957
65.687
64.142
62.339
60.288
58.019
55.556
52.941
50.199
47.372
44.491
41.591
38.702
35.862
33.081
30.381
27.768
25.263
22.877
20.623
18.517
16.569
14.783
13.149
11.662
10.313
9.098
8.006
7.033
6.171
5.411
4.747
4.169
3.668
3.236
2.865
2.546
2.270
2.029
1.819
1.638
1.481
1.346
1.229
1.127
1.038
0.958
0.885
0.817
0.756
0.700
0.648
0.601
0.556
0.515
0.476
0.439
0.405
0.372
0.342
0.314
0.288
0.263
0.241
0.221
0.203
0.186
0.171
0.157
0.145
0.134
0.125
0.116
0.109
0.102
0.096
0.091
0.086
0.082
0.078
0.075
0.072
0.070
0.067
0.065
0.063
0.062
0.060
0.058
0.057
0.056
0.054
0.053
0.052
0.050
0.049
0.048
0.047
0.046
0.045
0.044
0.043
0.042
0.041
0.040
0.039
0.039
0.038
0.037
0.036
0.035
0.035
0.034
0.033
0.033
0.032
0.031
0.030
0.030
0.029
0.028
0.027
0.027
0.026
0.025
0.024
0.023
0.022
0.021
0.021
0.020
0.019
0.018
0.017
0.016
0.015
0.014
0.013
0.012
0.011
0.010
0.010
0.009
0.008
0.007
0.007
0.006
0.005
0.005
0.004
0.004
0.004
0.003
0.003
0.002
0.002
0.002
0.002
0.001
0.001
0.001
0.001
0.001
0.001
0.001
0.000
0.000
0.000
0.000
0.000
0.000
0.000
0.000
0.000
0.000
0.000
0.000
0.000
0.000
0.000
0.000
0.000
0.000
0.000
0.000
0.000
0.000
0.000
0.000
0.000
0.000
0.000
0.000
0.000
0.000
0.000
-0.000
-0.000
-0.000
-0.000
-0.000
-0.000
-0.000
-0.000
-0.000
-0.000
0.000
0.000
0.000
0.000
0.000
0.000
0.000
0.000
0.000
0.000
0.000
-0.000
-0.000
-0.000
-0.000
-0.000
-0.000
-0.000
-0.000
-0.000
-0.000
0.000
0.000
0.000
0.000
0.000
0.000
0
0
0
0
0
0
0
0
0
0
0
0
0
0
0
0
0
0
0
0
0
0
0
0
0
0
0
0
0
0
0
0
0
0
0
0
0
0
0
0
0
0
0
0
0
0
0
0
0
0
0
0
0
0
0
0
0
0
0
0
0
0
0
0
0
0
0
0
0
0
0
0
0
0
0
0
0
0
0
0
0
0
0
0
0
0
0
0
0
0
0
0
0
0
0
0
0
0
0
0
0
0
0
0
0
0
0
0
0
0
0
0
0
0
0
0
0
0
0
0
0
0
0
0
0
0
0
0
0
0
0
0
0
0
0
0
0
0
0
0
0
0
0
0
0
0
0
0
0
0
0
0
0
0
0
0
0
0
0
0
0
0
0
0
0
0
0
0
0
0
0
0
0
0
0
0
0
0
0
0
0
0
0
0
0
0
0
0
0
0
0
0
0
0
0
0
0
0
0
0
0
0
0
0
0
0
0
0
0
0
0
0
0
0
0
0
0
0
0
0
0
0
0
0
0
0
0
0
0
0
0
0
0
0
0
0
0
0
0
0
0
0
0
0
0
0
0
0
0
0
0
0
0
0
0
0
0
0
0
0
0
0
0
0
0
0
0
0
0
0
0
0
0
0
0
0
0
0
0
0
0
0
0
0
0
0
0
0
0
0
0
0
0
0
0
0
0
0
0
0
0
0
0
0
0
0
0
0
0
0
0
0
0
0
0
0
0
0
0
0
0
0
0
0
0
0
0
0
0
0
0
0
0
0
0
0
0
0
0
0
0
0
0
0
0
0
0
0
0
0
0
0
0
0
0
0
0
0
0
0
0
0
0
0
0
0
0
0
0
0
0
0
0
0
0
0
0
0
0
0
0
0
0
0
0
0
0
0
0
0
0
0
0
0
0
0
0
0
0
0
0
0
0
0
0
0
0
0
0
0
0
0
0
0
0
0
0
0
0
0
0
0
0
0
0
0
0
0
0
0
0
0
0
0
0
0
0
0
0
0
0
0
0
0
0
0
0
0
0
0
0
0
0
0
0
0
0
0
0
0
0
0
0
0
0
0
0
0
0
0
0
0
0
0
0
0
0
0
$MCA_CAL:
3
-1.4656616 2.9313233 0.00000000000000
$ENER_FIT:
-1.4656616 2.9313233 0.00000000000000
$MCA_CAL_DATA:
3
298 872
597 1749
896 2625
$CAMBIO:
Parent file specification: C:\GADRAS-DRF\Temp\152EU_125.0_50.0_iron_3.50_8.5.pcf
Successful read of spectrum: Yes
Error message: None
Warning: None
Information: None
Neutrons: 0
Number of spectral records in the parent file: 1
Record number of this spectrum in the parent file: 1
Date and time of acquisition read successfully from the original file: Yes
Live time read successfully from the original file: Yes
True time read successfully from the original file: Yes
GADRAS Tag character is:  
Version: 130122
Parent file type: Sandia GADRAS PCF
