$SPEC_ID:
152EU,1uC{26,3.50}
$MEAS_TIM:
3600.00 3600.00
$DATE_MEA:
3/9/2018 5:22:25 PM
$DATA:
0 1193
1247.944
1203.580
1111.673
1248.628
1117.110
969.332
844.417
741.843
660.660
590.283
550.457
516.484
484.923
461.675
445.785
435.071
427.450
425.648
433.098
447.008
472.008
502.257
527.067
548.632
572.492
605.077
642.801
676.540
707.157
750.091
807.478
869.765
921.148
955.448
990.874
1049.340
1162.064
1359.997
1651.597
1996.486
2283.316
2351.886
2148.248
1751.697
1316.628
979.499
775.768
683.103
657.469
658.231
662.414
664.672
661.764
653.781
644.570
637.537
634.557
634.755
637.267
641.496
646.081
649.745
652.150
653.061
652.216
649.903
646.832
643.234
639.034
634.276
628.987
622.793
615.648
609.362
606.469
610.323
624.005
648.196
682.394
723.143
765.592
801.862
823.000
823.834
802.059
759.941
705.028
645.004
587.248
538.138
499.551
471.848
453.909
443.540
438.597
437.127
437.296
438.134
438.966
439.430
439.493
439.298
439.720
441.849
447.345
458.575
478.008
508.355
552.398
611.797
685.270
771.027
864.108
956.469
1039.734
1104.940
1142.712
1145.841
1115.638
1055.512
970.608
869.728
762.298
656.475
558.503
474.310
406.688
354.286
315.432
288.193
270.256
259.325
253.541
251.655
252.439
254.866
258.232
261.837
265.129
267.828
269.695
270.581
270.709
270.351
269.773
269.064
268.257
267.384
266.270
264.614
262.080
258.479
253.808
248.086
241.387
233.984
226.253
218.544
211.176
204.390
198.443
193.508
189.521
186.341
183.816
181.811
180.172
178.764
177.445
176.158
174.860
173.522
172.126
170.708
169.322
168.015
166.808
165.706
164.707
163.827
163.076
162.486
162.098
161.920
161.900
161.956
162.006
161.982
161.864
161.657
161.349
160.932
160.366
159.621
158.645
157.418
155.974
154.370
152.649
150.844
149.001
147.127
145.249
143.385
141.577
139.850
138.240
136.787
135.488
134.337
133.322
132.445
131.690
131.078
130.627
130.341
130.227
130.263
130.437
130.720
131.094
131.545
132.072
132.664
133.301
133.979
134.643
135.250
135.754
136.124
136.340
136.406
136.319
136.087
135.703
135.169
134.499
133.680
132.731
131.700
130.678
129.739
128.964
128.440
128.230
128.405
129.032
130.187
131.917
134.260
137.246
140.906
145.271
150.291
155.859
161.844
168.129
174.585
181.022
187.178
192.806
197.648
201.480
204.144
205.587
205.752
204.560
201.961
198.066
193.049
187.103
180.413
173.180
165.599
157.892
150.278
142.974
136.195
130.060
124.607
119.853
115.828
112.554
110.019
108.125
106.777
105.873
105.322
105.022
104.877
104.811
104.725
104.534
104.150
103.550
102.723
101.670
100.394
98.889
97.183
95.335
93.440
91.548
89.747
88.101
86.688
85.563
84.807
84.483
84.652
85.363
86.594
88.338
90.567
93.275
96.432
99.980
103.808
107.835
111.952
116.077
120.092
123.883
127.331
130.293
132.660
134.293
135.129
135.157
134.414
132.904
130.656
127.675
124.032
119.848
115.219
110.279
105.130
99.898
94.675
89.572
84.680
80.104
75.931
72.268
69.162
66.627
64.689
63.361
62.666
62.614
63.210
64.426
66.252
68.657
71.635
75.148
79.178
83.644
88.486
93.651
99.061
104.669
110.373
116.096
121.697
127.087
132.136
136.756
140.824
144.296
147.120
149.226
150.583
151.115
150.802
149.637
147.698
145.033
141.705
137.755
133.261
128.266
122.867
117.120
111.116
104.932
98.632
92.308
86.017
79.847
73.855
68.121
62.716
57.711
53.138
48.986
45.223
41.824
38.767
36.026
33.577
31.393
29.459
27.751
26.252
24.938
23.795
22.795
21.926
21.165
20.494
19.896
19.349
18.840
18.349
17.879
17.426
16.992
16.574
16.174
15.791
15.425
15.078
14.752
14.449
14.169
13.916
13.691
13.495
13.325
13.179
13.055
12.953
12.868
12.799
12.746
12.707
12.684
12.674
12.681
12.701
12.737
12.791
12.875
13.000
13.179
13.423
13.742
14.151
14.660
15.284
16.037
16.935
17.991
19.221
20.638
22.256
24.071
26.076
28.260
30.616
33.139
35.814
38.637
41.582
44.609
47.672
50.737
53.755
56.694
59.500
62.151
64.595
66.796
68.727
70.338
71.605
72.476
72.938
72.964
72.590
71.821
70.689
69.200
67.383
65.256
62.835
60.170
57.295
54.262
51.107
47.878
44.618
41.372
38.168
35.034
31.986
29.048
26.237
23.577
21.087
18.785
16.678
14.753
13.007
11.428
10.010
8.745
7.624
6.640
5.781
5.036
4.395
3.845
3.377
2.977
2.636
2.342
2.090
1.875
1.692
1.537
1.405
1.292
1.193
1.104
1.024
0.951
0.884
0.823
0.767
0.714
0.665
0.617
0.572
0.528
0.487
0.448
0.411
0.376
0.344
0.314
0.287
0.262
0.239
0.218
0.199
0.182
0.167
0.153
0.141
0.130
0.120
0.112
0.105
0.098
0.093
0.088
0.083
0.080
0.076
0.074
0.071
0.069
0.067
0.065
0.064
0.062
0.061
0.059
0.058
0.056
0.055
0.054
0.053
0.051
0.050
0.049
0.048
0.047
0.046
0.045
0.044
0.043
0.042
0.041
0.040
0.039
0.038
0.037
0.037
0.036
0.035
0.035
0.034
0.033
0.033
0.032
0.031
0.031
0.030
0.029
0.029
0.028
0.027
0.026
0.025
0.025
0.024
0.023
0.022
0.021
0.020
0.019
0.018
0.017
0.016
0.015
0.014
0.013
0.012
0.011
0.010
0.009
0.008
0.007
0.007
0.006
0.005
0.005
0.004
0.004
0.003
0.003
0.003
0.002
0.002
0.002
0.001
0.001
0.001
0.001
0.001
0.001
0.001
0.000
0.000
0.000
0.000
0.000
0.000
0.000
0.000
0.000
0.000
0.000
0.000
0.000
0.000
0.000
0.000
0.000
0.000
0.000
0.000
0.000
0.000
0.000
0.000
0.000
0.000
0.000
0.000
0.000
-0.000
-0.000
-0.000
-0.000
-0.000
-0.000
-0.000
-0.000
-0.000
0.000
0.000
0.000
0.000
0.000
0.000
0.000
0.000
0.000
0.000
0.000
0.000
0.000
0.000
0.000
0.000
0
0
0
0
0
0
0
0
0
0
0
0
0
0
0
0
0
0
0
0
0
0
0
0
0
0
0
0
0
0
0
0
0
0
0
0
0
0
0
0
0
0
0
0
0
0
0
0
0
0
0
0
0
0
0
0
0
0
0
0
0
0
0
0
0
0
0
0
0
0
0
0
0
0
0
0
0
0
0
0
0
0
0
0
0
0
0
0
0
0
0
0
0
0
0
0
0
0
0
0
0
0
0
0
0
0
0
0
0
0
0
0
0
0
0
0
0
0
0
0
0
0
0
0
0
0
0
0
0
0
0
0
0
0
0
0
0
0
0
0
0
0
0
0
0
0
0
0
0
0
0
0
0
0
0
0
0
0
0
0
0
0
0
0
0
0
0
0
0
0
0
0
0
0
0
0
0
0
0
0
0
0
0
0
0
0
0
0
0
0
0
0
0
0
0
0
0
0
0
0
0
0
0
0
0
0
0
0
0
0
0
0
0
0
0
0
0
0
0
0
0
0
0
0
0
0
0
0
0
0
0
0
0
0
0
0
0
0
0
0
0
0
0
0
0
0
0
0
0
0
0
0
0
0
0
0
0
0
0
0
0
0
0
0
0
0
0
0
0
0
0
0
0
0
0
0
0
0
0
0
0
0
0
0
0
0
0
0
0
0
0
0
0
0
0
0
0
0
0
0
0
0
0
0
0
0
0
0
0
0
0
0
0
0
0
0
0
0
0
0
0
0
0
0
0
0
0
0
0
0
0
0
0
0
0
0
0
0
0
0
0
0
0
0
0
0
0
0
0
0
0
0
0
0
0
0
0
0
0
0
0
0
0
0
0
0
0
0
0
0
0
0
0
0
0
0
0
0
0
0
0
0
0
0
0
0
0
0
0
0
0
0
0
0
0
0
0
0
0
0
0
0
0
0
0
0
0
0
0
0
0
0
0
0
0
0
0
0
0
0
0
0
0
0
0
0
0
0
0
0
0
0
0
0
0
0
0
0
0
0
0
0
0
0
0
0
0
0
0
0
0
0
0
0
0
0
0
0
0
0
0
0
0
0
0
0
0
0
0
0
0
0
0
0
0
0
0
0
0
0
0
0
0
0
0
0
0
0
0
0
0
0
0
0
$MCA_CAL:
3
-1.4656616 2.9313233 0.00000000000000
$ENER_FIT:
-1.4656616 2.9313233 0.00000000000000
$MCA_CAL_DATA:
3
298 872
597 1749
896 2625
$CAMBIO:
Parent file specification: C:\GADRAS-DRF\Temp\152EU_100.0_50.0_iron_3.50_8.0.pcf
Successful read of spectrum: Yes
Error message: None
Warning: None
Information: None
Neutrons: 0
Number of spectral records in the parent file: 1
Record number of this spectrum in the parent file: 1
Date and time of acquisition read successfully from the original file: Yes
Live time read successfully from the original file: Yes
True time read successfully from the original file: Yes
GADRAS Tag character is:  
Version: 130122
Parent file type: Sandia GADRAS PCF
