$SPEC_ID:
152EU,1uC{13,4.18}
$MEAS_TIM:
3600.00 3600.00
$DATE_MEA:
3/9/2018 5:22:25 PM
$DATA:
0 1193
1315.676
1338.963
1378.657
1914.901
1684.446
1314.852
1084.728
874.742
791.864
748.953
905.296
1528.246
2903.948
3850.787
3167.591
2104.337
1329.132
893.483
780.479
824.064
899.945
981.853
1052.944
1106.164
1169.486
1242.375
1306.888
1352.960
1390.963
1423.375
1462.250
1512.268
1551.938
1573.350
1597.733
1651.617
1773.512
2001.713
2345.335
2754.898
3090.132
3141.254
2842.406
2300.906
1719.121
1273.378
1002.923
875.480
836.960
834.748
838.263
839.823
834.448
821.462
805.184
790.148
779.338
772.379
768.519
767.000
766.214
764.769
762.632
759.816
756.106
751.638
746.826
741.742
736.218
730.200
723.613
715.977
707.117
698.624
692.838
693.099
702.521
721.790
750.435
785.207
821.535
851.910
867.787
864.289
839.318
795.177
739.254
678.960
621.192
571.877
532.727
504.038
484.794
473.027
466.753
464.045
463.072
462.857
462.706
462.246
461.437
460.405
459.970
461.146
465.480
475.166
492.494
520.011
560.334
615.034
682.918
762.317
848.567
934.102
1011.031
1070.903
1104.861
1106.124
1076.051
1018.004
936.913
840.962
738.899
638.356
545.292
465.377
401.257
351.584
314.704
288.758
271.577
261.017
255.328
253.327
253.848
255.917
258.869
262.045
264.924
267.237
268.756
269.341
269.211
268.631
267.864
266.990
266.036
265.027
263.794
262.053
259.485
255.912
251.337
245.782
239.321
232.208
224.790
217.392
210.313
203.784
198.054
193.290
189.426
186.328
183.845
181.849
180.198
178.764
177.415
176.099
174.774
173.411
171.994
170.556
169.148
167.813
166.572
165.433
164.396
163.477
162.686
162.049
161.606
161.360
161.263
161.238
161.207
161.106
160.916
160.641
160.269
159.792
159.174
158.388
157.386
156.152
154.716
153.133
151.441
149.672
147.869
146.040
144.206
142.388
140.623
138.934
137.356
135.927
134.643
133.499
132.485
131.602
130.837
130.208
129.733
129.415
129.260
129.249
129.368
129.591
129.900
130.282
130.735
131.248
131.804
132.398
132.977
133.504
133.933
134.237
134.397
134.415
134.289
134.028
133.624
133.078
132.405
131.590
130.652
129.637
128.631
127.704
126.932
126.400
126.166
126.296
126.853
127.908
129.506
131.683
134.468
137.892
141.984
146.698
151.933
157.563
163.478
169.553
175.612
181.403
186.690
191.230
194.810
197.279
198.588
198.687
197.500
194.981
191.237
186.431
180.746
174.357
167.455
160.224
152.875
145.615
138.652
132.189
126.339
121.138
116.602
112.758
109.628
107.201
105.382
104.082
103.204
102.661
102.358
102.202
102.120
102.020
101.818
101.432
100.839
100.030
99.006
97.770
96.317
94.674
92.897
91.076
89.257
87.526
85.943
84.582
83.496
82.762
82.439
82.588
83.253
84.414
86.064
88.174
90.739
93.730
97.091
100.718
104.533
108.435
112.343
116.148
119.740
123.005
125.807
128.041
129.575
130.348
130.351
129.618
128.154
125.990
123.128
119.637
115.632
111.204
106.480
101.558
96.556
91.562
86.685
82.007
77.634
73.646
70.147
67.180
64.759
62.909
61.640
60.974
60.921
61.485
62.639
64.374
66.662
69.496
72.842
76.681
80.937
85.552
90.474
95.630
100.975
106.410
111.864
117.200
122.334
127.142
131.540
135.410
138.710
141.392
143.386
144.666
145.157
144.840
143.711
141.840
139.277
136.082
132.290
127.980
123.191
118.016
112.509
106.757
100.833
94.799
88.742
82.718
76.810
71.072
65.583
60.408
55.617
51.239
47.264
43.661
40.407
37.480
34.854
32.508
30.415
28.561
26.923
25.486
24.224
23.127
22.167
21.332
20.601
19.956
19.381
18.855
18.364
17.892
17.439
17.002
16.584
16.181
15.796
15.426
15.074
14.739
14.424
14.132
13.862
13.617
13.400
13.210
13.045
12.904
12.783
12.683
12.599
12.532
12.479
12.440
12.416
12.405
12.409
12.427
12.459
12.510
12.589
12.708
12.878
13.111
13.416
13.807
14.295
14.894
15.617
16.479
17.492
18.672
20.032
21.584
23.326
25.250
27.346
29.607
32.027
34.594
37.302
40.127
43.031
45.969
48.909
51.804
54.622
57.314
59.857
62.200
64.310
66.161
67.704
68.916
69.748
70.185
70.204
69.838
69.092
67.998
66.561
64.809
62.760
60.429
57.864
55.097
52.180
49.145
46.040
42.905
39.783
36.702
33.688
30.756
27.931
25.227
22.669
20.275
18.061
16.035
14.185
12.506
10.989
9.626
8.410
7.333
6.387
5.561
4.845
4.229
3.700
3.249
2.865
2.537
2.254
2.012
1.805
1.629
1.480
1.353
1.245
1.149
1.064
0.986
0.916
0.852
0.793
0.739
0.688
0.640
0.595
0.551
0.509
0.469
0.431
0.396
0.362
0.331
0.303
0.276
0.252
0.230
0.210
0.192
0.175
0.161
0.148
0.136
0.125
0.116
0.108
0.101
0.095
0.089
0.085
0.081
0.077
0.074
0.071
0.069
0.067
0.065
0.063
0.062
0.060
0.059
0.057
0.056
0.055
0.053
0.052
0.051
0.050
0.049
0.047
0.046
0.045
0.044
0.043
0.042
0.041
0.040
0.039
0.039
0.038
0.037
0.036
0.035
0.035
0.034
0.033
0.033
0.032
0.032
0.031
0.030
0.030
0.029
0.028
0.028
0.027
0.026
0.025
0.025
0.024
0.023
0.022
0.021
0.020
0.019
0.018
0.017
0.016
0.015
0.014
0.013
0.012
0.011
0.010
0.010
0.009
0.008
0.007
0.007
0.006
0.005
0.005
0.004
0.004
0.003
0.003
0.002
0.002
0.002
0.002
0.001
0.001
0.001
0.001
0.001
0.001
0.001
0.000
0.000
0.000
0.000
0.000
0.000
0.000
0.000
0.000
0.000
0.000
0.000
0.000
0.000
0.000
0.000
0.000
0.000
0.000
0.000
0.000
0.000
0.000
0.000
0.000
0.000
0.000
0.000
0.000
-0.000
-0.000
-0.000
-0.000
-0.000
-0.000
-0.000
-0.000
-0.000
0.000
0.000
0.000
0.000
0.000
0.000
0.000
0.000
0.000
0.000
0.000
0.000
0.000
0.000
0.000
0.000
0
0
0
0
0
0
0
0
0
0
0
0
0
0
0
0
0
0
0
0
0
0
0
0
0
0
0
0
0
0
0
0
0
0
0
0
0
0
0
0
0
0
0
0
0
0
0
0
0
0
0
0
0
0
0
0
0
0
0
0
0
0
0
0
0
0
0
0
0
0
0
0
0
0
0
0
0
0
0
0
0
0
0
0
0
0
0
0
0
0
0
0
0
0
0
0
0
0
0
0
0
0
0
0
0
0
0
0
0
0
0
0
0
0
0
0
0
0
0
0
0
0
0
0
0
0
0
0
0
0
0
0
0
0
0
0
0
0
0
0
0
0
0
0
0
0
0
0
0
0
0
0
0
0
0
0
0
0
0
0
0
0
0
0
0
0
0
0
0
0
0
0
0
0
0
0
0
0
0
0
0
0
0
0
0
0
0
0
0
0
0
0
0
0
0
0
0
0
0
0
0
0
0
0
0
0
0
0
0
0
0
0
0
0
0
0
0
0
0
0
0
0
0
0
0
0
0
0
0
0
0
0
0
0
0
0
0
0
0
0
0
0
0
0
0
0
0
0
0
0
0
0
0
0
0
0
0
0
0
0
0
0
0
0
0
0
0
0
0
0
0
0
0
0
0
0
0
0
0
0
0
0
0
0
0
0
0
0
0
0
0
0
0
0
0
0
0
0
0
0
0
0
0
0
0
0
0
0
0
0
0
0
0
0
0
0
0
0
0
0
0
0
0
0
0
0
0
0
0
0
0
0
0
0
0
0
0
0
0
0
0
0
0
0
0
0
0
0
0
0
0
0
0
0
0
0
0
0
0
0
0
0
0
0
0
0
0
0
0
0
0
0
0
0
0
0
0
0
0
0
0
0
0
0
0
0
0
0
0
0
0
0
0
0
0
0
0
0
0
0
0
0
0
0
0
0
0
0
0
0
0
0
0
0
0
0
0
0
0
0
0
0
0
0
0
0
0
0
0
0
0
0
0
0
0
0
0
0
0
0
0
0
0
0
0
0
0
0
0
0
0
0
0
0
0
0
0
0
0
0
0
0
0
0
0
0
0
0
0
0
0
0
0
0
0
0
0
0
0
0
0
0
0
0
0
0
0
0
0
0
0
0
0
0
$MCA_CAL:
3
-1.4656616 2.9313233 0.00000000000000
$ENER_FIT:
-1.4656616 2.9313233 0.00000000000000
$MCA_CAL_DATA:
3
298 872
597 1749
896 2625
$CAMBIO:
Parent file specification: C:\GADRAS-DRF\Temp\152EU_75.0_50.0_alum_4.18_8.0.pcf
Successful read of spectrum: Yes
Error message: None
Warning: None
Information: None
Neutrons: 0
Number of spectral records in the parent file: 1
Record number of this spectrum in the parent file: 1
Date and time of acquisition read successfully from the original file: Yes
Live time read successfully from the original file: Yes
True time read successfully from the original file: Yes
GADRAS Tag character is:  
Version: 130122
Parent file type: Sandia GADRAS PCF
