$SPEC_ID:
152EU,1uC{26,3.50}
$MEAS_TIM:
3600.00 3600.00
$DATE_MEA:
3/9/2018 5:22:25 PM
$DATA:
0 1193
1163.968
1110.501
1022.354
1141.240
1023.889
892.541
780.529
687.647
612.959
547.823
510.533
478.741
449.357
427.501
412.012
400.809
392.165
388.671
393.047
402.893
421.986
445.577
465.876
485.291
505.485
532.471
566.010
600.698
638.052
689.316
752.784
817.884
869.815
903.956
938.665
996.419
1109.115
1307.815
1600.959
1947.781
2236.391
2306.474
2103.527
1707.052
1271.617
932.640
726.267
630.615
601.199
598.300
600.101
602.112
601.323
597.375
593.024
590.595
591.243
594.138
598.545
603.991
609.342
613.490
616.017
616.677
615.357
612.456
608.758
604.655
600.258
595.656
590.882
585.646
579.978
575.645
575.089
581.518
597.861
624.689
661.412
704.548
749.230
787.503
810.317
812.562
792.104
751.218
697.274
637.880
580.600
531.994
493.935
466.730
449.246
439.299
434.750
433.618
434.050
435.088
436.086
436.701
436.902
436.833
437.370
439.609
445.210
456.544
476.081
506.535
550.688
610.200
683.785
769.647
862.823
955.272
1038.618
1103.908
1141.778
1145.027
1114.953
1054.945
970.139
869.338
761.974
656.208
558.285
474.133
406.545
354.168
315.333
288.107
270.177
259.252
253.472
251.590
252.377
254.807
258.175
261.781
265.076
267.776
269.644
270.531
270.660
270.303
269.727
269.018
268.213
267.340
266.225
264.569
262.035
258.433
253.762
248.040
241.340
233.938
226.206
218.497
211.129
204.343
198.395
193.460
189.473
186.293
183.769
181.764
180.127
178.721
177.404
176.119
174.822
173.486
172.092
170.675
169.291
167.985
166.780
165.679
164.683
163.804
163.055
162.466
162.079
161.902
161.882
161.939
161.991
161.967
161.850
161.644
161.337
160.920
160.355
159.611
158.635
157.410
155.966
154.364
152.643
150.838
148.995
147.122
145.244
143.380
141.572
139.846
138.236
136.783
135.484
134.333
133.318
132.442
131.687
131.075
130.625
130.339
130.224
130.260
130.435
130.718
131.092
131.543
132.071
132.662
133.300
133.978
134.642
135.249
135.754
136.123
136.340
136.406
136.319
136.087
135.703
135.169
134.499
133.680
132.731
131.700
130.678
129.739
128.963
128.439
128.230
128.405
129.032
130.187
131.917
134.260
137.246
140.906
145.271
150.291
155.859
161.844
168.129
174.585
181.022
187.178
192.806
197.648
201.480
204.144
205.587
205.752
204.560
201.961
198.066
193.049
187.103
180.413
173.180
165.599
157.892
150.278
142.974
136.195
130.060
124.607
119.853
115.828
112.554
110.019
108.125
106.777
105.873
105.322
105.022
104.877
104.811
104.725
104.534
104.150
103.550
102.723
101.670
100.394
98.889
97.183
95.335
93.440
91.548
89.747
88.101
86.688
85.563
84.807
84.483
84.652
85.363
86.594
88.338
90.567
93.275
96.432
99.980
103.808
107.835
111.952
116.077
120.092
123.883
127.331
130.293
132.660
134.293
135.129
135.157
134.414
132.904
130.656
127.675
124.032
119.848
115.219
110.279
105.130
99.898
94.675
89.572
84.680
80.104
75.931
72.268
69.162
66.627
64.689
63.361
62.666
62.614
63.210
64.426
66.252
68.657
71.635
75.148
79.178
83.644
88.486
93.651
99.061
104.669
110.373
116.096
121.697
127.087
132.136
136.756
140.824
144.296
147.120
149.226
150.583
151.115
150.802
149.637
147.698
145.033
141.705
137.755
133.261
128.266
122.867
117.120
111.116
104.932
98.632
92.308
86.017
79.847
73.855
68.121
62.716
57.711
53.138
48.986
45.223
41.824
38.767
36.026
33.577
31.393
29.459
27.751
26.252
24.938
23.795
22.795
21.926
21.165
20.494
19.896
19.349
18.840
18.349
17.879
17.426
16.992
16.574
16.174
15.791
15.425
15.078
14.752
14.449
14.169
13.916
13.691
13.495
13.325
13.179
13.055
12.953
12.868
12.799
12.746
12.707
12.684
12.674
12.681
12.701
12.737
12.791
12.875
13.000
13.179
13.423
13.742
14.151
14.660
15.284
16.037
16.935
17.991
19.221
20.638
22.256
24.071
26.076
28.260
30.616
33.139
35.814
38.637
41.582
44.609
47.672
50.737
53.755
56.694
59.500
62.151
64.595
66.796
68.727
70.338
71.605
72.476
72.938
72.964
72.590
71.821
70.689
69.200
67.383
65.256
62.835
60.170
57.295
54.262
51.107
47.878
44.618
41.372
38.168
35.034
31.986
29.048
26.237
23.577
21.087
18.785
16.678
14.753
13.007
11.428
10.010
8.745
7.624
6.640
5.781
5.036
4.395
3.845
3.377
2.977
2.636
2.342
2.090
1.875
1.692
1.537
1.405
1.292
1.193
1.104
1.024
0.951
0.884
0.823
0.767
0.714
0.665
0.617
0.572
0.528
0.487
0.448
0.411
0.376
0.344
0.314
0.287
0.262
0.239
0.218
0.199
0.182
0.167
0.153
0.141
0.130
0.120
0.112
0.105
0.098
0.093
0.088
0.083
0.080
0.076
0.074
0.071
0.069
0.067
0.065
0.064
0.062
0.061
0.059
0.058
0.056
0.055
0.054
0.053
0.051
0.050
0.049
0.048
0.047
0.046
0.045
0.044
0.043
0.042
0.041
0.040
0.039
0.038
0.037
0.037
0.036
0.035
0.035
0.034
0.033
0.033
0.032
0.031
0.031
0.030
0.029
0.029
0.028
0.027
0.026
0.025
0.025
0.024
0.023
0.022
0.021
0.020
0.019
0.018
0.017
0.016
0.015
0.014
0.013
0.012
0.011
0.010
0.009
0.008
0.007
0.007
0.006
0.005
0.005
0.004
0.004
0.003
0.003
0.003
0.002
0.002
0.002
0.001
0.001
0.001
0.001
0.001
0.001
0.001
0.000
0.000
0.000
0.000
0.000
0.000
0.000
0.000
0.000
0.000
0.000
0.000
0.000
0.000
0.000
0.000
0.000
0.000
0.000
0.000
0.000
0.000
0.000
0.000
0.000
0.000
0.000
0.000
0.000
-0.000
-0.000
-0.000
-0.000
-0.000
-0.000
-0.000
-0.000
-0.000
0.000
0.000
0.000
0.000
0.000
0.000
0.000
0.000
0.000
0.000
0.000
0.000
0.000
0.000
0.000
0.000
0
0
0
0
0
0
0
0
0
0
0
0
0
0
0
0
0
0
0
0
0
0
0
0
0
0
0
0
0
0
0
0
0
0
0
0
0
0
0
0
0
0
0
0
0
0
0
0
0
0
0
0
0
0
0
0
0
0
0
0
0
0
0
0
0
0
0
0
0
0
0
0
0
0
0
0
0
0
0
0
0
0
0
0
0
0
0
0
0
0
0
0
0
0
0
0
0
0
0
0
0
0
0
0
0
0
0
0
0
0
0
0
0
0
0
0
0
0
0
0
0
0
0
0
0
0
0
0
0
0
0
0
0
0
0
0
0
0
0
0
0
0
0
0
0
0
0
0
0
0
0
0
0
0
0
0
0
0
0
0
0
0
0
0
0
0
0
0
0
0
0
0
0
0
0
0
0
0
0
0
0
0
0
0
0
0
0
0
0
0
0
0
0
0
0
0
0
0
0
0
0
0
0
0
0
0
0
0
0
0
0
0
0
0
0
0
0
0
0
0
0
0
0
0
0
0
0
0
0
0
0
0
0
0
0
0
0
0
0
0
0
0
0
0
0
0
0
0
0
0
0
0
0
0
0
0
0
0
0
0
0
0
0
0
0
0
0
0
0
0
0
0
0
0
0
0
0
0
0
0
0
0
0
0
0
0
0
0
0
0
0
0
0
0
0
0
0
0
0
0
0
0
0
0
0
0
0
0
0
0
0
0
0
0
0
0
0
0
0
0
0
0
0
0
0
0
0
0
0
0
0
0
0
0
0
0
0
0
0
0
0
0
0
0
0
0
0
0
0
0
0
0
0
0
0
0
0
0
0
0
0
0
0
0
0
0
0
0
0
0
0
0
0
0
0
0
0
0
0
0
0
0
0
0
0
0
0
0
0
0
0
0
0
0
0
0
0
0
0
0
0
0
0
0
0
0
0
0
0
0
0
0
0
0
0
0
0
0
0
0
0
0
0
0
0
0
0
0
0
0
0
0
0
0
0
0
0
0
0
0
0
0
0
0
0
0
0
0
0
0
0
0
0
0
0
0
0
0
0
0
0
0
0
0
0
0
0
0
0
0
0
0
0
0
0
0
0
0
0
0
0
0
0
0
0
0
0
0
0
0
0
0
0
0
$MCA_CAL:
3
-1.4656616 2.9313233 0.00000000000000
$ENER_FIT:
-1.4656616 2.9313233 0.00000000000000
$MCA_CAL_DATA:
3
298 872
597 1749
896 2625
$CAMBIO:
Parent file specification: C:\GADRAS-DRF\Temp\152EU_150.0_50.0_iron_3.50_8.0.pcf
Successful read of spectrum: Yes
Error message: None
Warning: None
Information: None
Neutrons: 0
Number of spectral records in the parent file: 1
Record number of this spectrum in the parent file: 1
Date and time of acquisition read successfully from the original file: Yes
Live time read successfully from the original file: Yes
True time read successfully from the original file: Yes
GADRAS Tag character is:  
Version: 130122
Parent file type: Sandia GADRAS PCF
